PE IR       SUBTECH     SPECTRUM    ASCII       PEDS        1.60        
  -1
1911B9.ASC
07/11/20
12:25:34.00
07/11/20
10:09:19.00
koro/arcerd
540min-100c
450.000000
16









1004,02.19S
DTGS
MIR
KBR
52208
0.300000

4.000000
STRONG
RATIO
MAGNITUDE


DOUBLE SIDED
16
BIDIRECTIONAL
2




#HDR
-1
-1
#GR
CM-1
A
0.00000011920928955078
0.0
4400.000000
-2.000000
1976
8
1.808832
0.100078
#DATA
4400.000000	1.669138 
4398.000000	1.665080 
4396.000000	1.661969 
4394.000000	1.661746 
4392.000000	1.659141 
4390.000000	1.667524 
4388.000000	1.671430 
4386.000000	1.663999 
4384.000000	1.667659 
4382.000000	1.655763 
4380.000000	1.647236 
4378.000000	1.654196 
4376.000000	1.654560 
4374.000000	1.658108 
4372.000000	1.657430 
4370.000000	1.656002 
4368.000000	1.666307 
4366.000000	1.671221 
4364.000000	1.667966 
4362.000000	1.656574 
4360.000000	1.649529 
4358.000000	1.664123 
4356.000000	1.670823 
4354.000000	1.663975 
4352.000000	1.663966 
4350.000000	1.668544 
4348.000000	1.671595 
4346.000000	1.663947 
4344.000000	1.648197 
4342.000000	1.643534 
4340.000000	1.647645 
4338.000000	1.650940 
4336.000000	1.664707 
4334.000000	1.667187 
4332.000000	1.664644 
4330.000000	1.671717 
4328.000000	1.667912 
4326.000000	1.659665 
4324.000000	1.665684 
4322.000000	1.671756 
4320.000000	1.667870 
4318.000000	1.656800 
4316.000000	1.649344 
4314.000000	1.658640 
4312.000000	1.668269 
4310.000000	1.666893 
4308.000000	1.664917 
4306.000000	1.667870 
4304.000000	1.662117 
4302.000000	1.648620 
4300.000000	1.645466 
4298.000000	1.659935 
4296.000000	1.671289 
4294.000000	1.668332 
4292.000000	1.663035 
4290.000000	1.653058 
4288.000000	1.644049 
4286.000000	1.644903 
4284.000000	1.648557 
4282.000000	1.651459 
4280.000000	1.652216 
4278.000000	1.655000 
4276.000000	1.660612 
4274.000000	1.654397 
4272.000000	1.647912 
4270.000000	1.653370 
4268.000000	1.657463 
4266.000000	1.663622 
4264.000000	1.670028 
4262.000000	1.671343 
4260.000000	1.663303 
4258.000000	1.648552 
4256.000000	1.644903 
4254.000000	1.647751 
4252.000000	1.646478 
4250.000000	1.654252 
4248.000000	1.662755 
4246.000000	1.660186 
4244.000000	1.661342 
4242.000000	1.664812 
4240.000000	1.661684 
4238.000000	1.657524 
4236.000000	1.659486 
4234.000000	1.658890 
4232.000000	1.656842 
4230.000000	1.657322 
4228.000000	1.662493 
4226.000000	1.665583 
4224.000000	1.666744 
4222.000000	1.663007 
4220.000000	1.658702 
4218.000000	1.659547 
4216.000000	1.658343 
4214.000000	1.657750 
4212.000000	1.656664 
4210.000000	1.653226 
4208.000000	1.657199 
4206.000000	1.664716 
4204.000000	1.667509 
4202.000000	1.663660 
4200.000000	1.658975 
4198.000000	1.658947 
4196.000000	1.663288 
4194.000000	1.661062 
4192.000000	1.656471 
4190.000000	1.660427 
4188.000000	1.665698 
4186.000000	1.662036 
4184.000000	1.660816 
4182.000000	1.667639 
4180.000000	1.670537 
4178.000000	1.665219 
4176.000000	1.657552 
4174.000000	1.656302 
4172.000000	1.653156 
4170.000000	1.652360 
4168.000000	1.660441 
4166.000000	1.661737 
4164.000000	1.658244 
4162.000000	1.665262 
4160.000000	1.666567 
4158.000000	1.657453 
4156.000000	1.653217 
4154.000000	1.654588 
4152.000000	1.653431 
4150.000000	1.651436 
4148.000000	1.652118 
4146.000000	1.661376 
4144.000000	1.661523 
4142.000000	1.654883 
4140.000000	1.659164 
4138.000000	1.660745 
4136.000000	1.660370 
4134.000000	1.667697 
4132.000000	1.666038 
4130.000000	1.657660 
4128.000000	1.655238 
4126.000000	1.660186 
4124.000000	1.660214 
4122.000000	1.650421 
4120.000000	1.647084 
4118.000000	1.653977 
4116.000000	1.657646 
4114.000000	1.658159 
4112.000000	1.662712 
4110.000000	1.667514 
4108.000000	1.663174 
4106.000000	1.661281 
4104.000000	1.664272 
4102.000000	1.664090 
4100.000000	1.662850 
4098.000000	1.663660 
4096.000000	1.660370 
4094.000000	1.657792 
4092.000000	1.653244 
4090.000000	1.647990 
4088.000000	1.650481 
4086.000000	1.654967 
4084.000000	1.657486 
4082.000000	1.654196 
4080.000000	1.647580 
4078.000000	1.648045 
4076.000000	1.653370 
4074.000000	1.662098 
4072.000000	1.662245 
4070.000000	1.659358 
4068.000000	1.659004 
4066.000000	1.653981 
4064.000000	1.654303 
4062.000000	1.660934 
4060.000000	1.662036 
4058.000000	1.657651 
4056.000000	1.655749 
4054.000000	1.654687 
4052.000000	1.655622 
4050.000000	1.660276 
4048.000000	1.658334 
4046.000000	1.649556 
4044.000000	1.648547 
4042.000000	1.652351 
4040.000000	1.650842 
4038.000000	1.654443 
4036.000000	1.661029 
4034.000000	1.664152 
4032.000000	1.664104 
4030.000000	1.663503 
4028.000000	1.663188 
4026.000000	1.660200 
4024.000000	1.653673 
4022.000000	1.651515 
4020.000000	1.654402 
4018.000000	1.652625 
4016.000000	1.650222 
4014.000000	1.652137 
4012.000000	1.658952 
4010.000000	1.660385 
4008.000000	1.653515 
4006.000000	1.649912 
4004.000000	1.650944 
4002.000000	1.648418 
4000.000000	1.653841 
3998.000000	1.667119 
3996.000000	1.673134 
3994.000000	1.667941 
3992.000000	1.654243 
3990.000000	1.647613 
3988.000000	1.656748 
3986.000000	1.661670 
3984.000000	1.654402 
3982.000000	1.649321 
3980.000000	1.648469 
3978.000000	1.646125 
3976.000000	1.652835 
3974.000000	1.662017 
3972.000000	1.660754 
3970.000000	1.650227 
3968.000000	1.648501 
3966.000000	1.654089 
3964.000000	1.658259 
3962.000000	1.659869 
3960.000000	1.654532 
3958.000000	1.649834 
3956.000000	1.652951 
3954.000000	1.654093 
3952.000000	1.650935 
3950.000000	1.644647 
3948.000000	1.646290 
3946.000000	1.651185 
3944.000000	1.653711 
3942.000000	1.660351 
3940.000000	1.657566 
3938.000000	1.653799 
3936.000000	1.655529 
3934.000000	1.657990 
3932.000000	1.664970 
3930.000000	1.665688 
3928.000000	1.659552 
3926.000000	1.655215 
3924.000000	1.654958 
3922.000000	1.656650 
3920.000000	1.655440 
3918.000000	1.661665 
3916.000000	1.665454 
3914.000000	1.663918 
3912.000000	1.662450 
3910.000000	1.653963 
3908.000000	1.652002 
3906.000000	1.653464 
3904.000000	1.649949 
3902.000000	1.644410 
3900.000000	1.657609 
3898.000000	1.676999 
3896.000000	1.671600 
3894.000000	1.651366 
3892.000000	1.652276 
3890.000000	1.669496 
3888.000000	1.665765 
3886.000000	1.658763 
3884.000000	1.660385 
3882.000000	1.656255 
3880.000000	1.659731 
3878.000000	1.660115 
3876.000000	1.655763 
3874.000000	1.661822 
3872.000000	1.655126 
3870.000000	1.651724 
3868.000000	1.660669 
3866.000000	1.652267 
3864.000000	1.652016 
3862.000000	1.661309 
3860.000000	1.658919 
3858.000000	1.648372 
3856.000000	1.635043 
3854.000000	1.646790 
3852.000000	1.671620 
3850.000000	1.668998 
3848.000000	1.654079 
3846.000000	1.643548 
3844.000000	1.641425 
3842.000000	1.645983 
3840.000000	1.653865 
3838.000000	1.663279 
3836.000000	1.667779 
3834.000000	1.663546 
3832.000000	1.657576 
3830.000000	1.652616 
3828.000000	1.652942 
3826.000000	1.652900 
3824.000000	1.650615 
3822.000000	1.656246 
3820.000000	1.663818 
3818.000000	1.657863 
3816.000000	1.657397 
3814.000000	1.667264 
3812.000000	1.660418 
3810.000000	1.647415 
3808.000000	1.645164 
3806.000000	1.657637 
3804.000000	1.654883 
3802.000000	1.653594 
3800.000000	1.672461 
3798.000000	1.674374 
3796.000000	1.663732 
3794.000000	1.662874 
3792.000000	1.662864 
3790.000000	1.660555 
3788.000000	1.656880 
3786.000000	1.653631 
3784.000000	1.657312 
3782.000000	1.660892 
3780.000000	1.658999 
3778.000000	1.659093 
3776.000000	1.659897 
3774.000000	1.657707 
3772.000000	1.655983 
3770.000000	1.655683 
3768.000000	1.654570 
3766.000000	1.655084 
3764.000000	1.663093 
3762.000000	1.663183 
3760.000000	1.659462 
3758.000000	1.660460 
3756.000000	1.661637 
3754.000000	1.648744 
3752.000000	1.640872 
3750.000000	1.657764 
3748.000000	1.669854 
3746.000000	1.671625 
3744.000000	1.684614 
3742.000000	1.688906 
3740.000000	1.664286 
3738.000000	1.649861 
3736.000000	1.671814 
3734.000000	1.688123 
3732.000000	1.689721 
3730.000000	1.690654 
3728.000000	1.682312 
3726.000000	1.671012 
3724.000000	1.668829 
3722.000000	1.674932 
3720.000000	1.687937 
3718.000000	1.698753 
3716.000000	1.696709 
3714.000000	1.683504 
3712.000000	1.678211 
3710.000000	1.696493 
3708.000000	1.710280 
3706.000000	1.699623 
3704.000000	1.693089 
3702.000000	1.690005 
3700.000000	1.689959 
3698.000000	1.688800 
3696.000000	1.692354 
3694.000000	1.700261 
3692.000000	1.697343 
3690.000000	1.696189 
3688.000000	1.720869 
3686.000000	1.733842 
3684.000000	1.719743 
3682.000000	1.705457 
3680.000000	1.708077 
3678.000000	1.717447 
3676.000000	1.729634 
3674.000000	1.743220 
3672.000000	1.736092 
3670.000000	1.736351 
3668.000000	1.743254 
3666.000000	1.733887 
3664.000000	1.726507 
3662.000000	1.724082 
3660.000000	1.727086 
3658.000000	1.729784 
3656.000000	1.745167 
3654.000000	1.749675 
3652.000000	1.739249 
3650.000000	1.740796 
3648.000000	1.749855 
3646.000000	1.753637 
3644.000000	1.745115 
3642.000000	1.745512 
3640.000000	1.750822 
3638.000000	1.737916 
3636.000000	1.730262 
3634.000000	1.746031 
3632.000000	1.753795 
3630.000000	1.739937 
3628.000000	1.753965 
3626.000000	1.763594 
3624.000000	1.745213 
3622.000000	1.724845 
3620.000000	1.713988 
3618.000000	1.723851 
3616.000000	1.732778 
3614.000000	1.742710 
3612.000000	1.754965 
3610.000000	1.733265 
3608.000000	1.715809 
3606.000000	1.723150 
3604.000000	1.735354 
3602.000000	1.742069 
3600.000000	1.737407 
3598.000000	1.744672 
3596.000000	1.746031 
3594.000000	1.743770 
3592.000000	1.741806 
3590.000000	1.735117 
3588.000000	1.737509 
3586.000000	1.753044 
3584.000000	1.756541 
3582.000000	1.746199 
3580.000000	1.731566 
3578.000000	1.723156 
3576.000000	1.724136 
3574.000000	1.739118 
3572.000000	1.745985 
3570.000000	1.753179 
3568.000000	1.758531 
3566.000000	1.763660 
3564.000000	1.764484 
3562.000000	1.756629 
3560.000000	1.755525 
3558.000000	1.752675 
3556.000000	1.750076 
3554.000000	1.755873 
3552.000000	1.758335 
3550.000000	1.751926 
3548.000000	1.745357 
3546.000000	1.745034 
3544.000000	1.749803 
3542.000000	1.753484 
3540.000000	1.752892 
3538.000000	1.755673 
3536.000000	1.756417 
3534.000000	1.751856 
3532.000000	1.756594 
3530.000000	1.754724 
3528.000000	1.746268 
3526.000000	1.746568 
3524.000000	1.751564 
3522.000000	1.758210 
3520.000000	1.760268 
3518.000000	1.756576 
3516.000000	1.753220 
3514.000000	1.750962 
3512.000000	1.746516 
3510.000000	1.748037 
3508.000000	1.755278 
3506.000000	1.751955 
3504.000000	1.753408 
3502.000000	1.760369 
3500.000000	1.758175 
3498.000000	1.746262 
3496.000000	1.741829 
3494.000000	1.754400 
3492.000000	1.764262 
3490.000000	1.761145 
3488.000000	1.762928 
3486.000000	1.757410 
3484.000000	1.747088 
3482.000000	1.744591 
3480.000000	1.757043 
3478.000000	1.765853 
3476.000000	1.760793 
3474.000000	1.755131 
3472.000000	1.748177 
3470.000000	1.748084 
3468.000000	1.754242 
3466.000000	1.756984 
3464.000000	1.755319 
3462.000000	1.756724 
3460.000000	1.764418 
3458.000000	1.761599 
3456.000000	1.747644 
3454.000000	1.745196 
3452.000000	1.750065 
3450.000000	1.752148 
3448.000000	1.758121 
3446.000000	1.766983 
3444.000000	1.768584 
3442.000000	1.761653 
3440.000000	1.761013 
3438.000000	1.768444 
3436.000000	1.766300 
3434.000000	1.759630 
3432.000000	1.758495 
3430.000000	1.757493 
3428.000000	1.755248 
3426.000000	1.757618 
3424.000000	1.764779 
3422.000000	1.766674 
3420.000000	1.761187 
3418.000000	1.756913 
3416.000000	1.748530 
3414.000000	1.743512 
3412.000000	1.752441 
3410.000000	1.761151 
3408.000000	1.764406 
3406.000000	1.758139 
3404.000000	1.751342 
3402.000000	1.756990 
3400.000000	1.758424 
3398.000000	1.749460 
3396.000000	1.745339 
3394.000000	1.747325 
3392.000000	1.751289 
3390.000000	1.756742 
3388.000000	1.759274 
3386.000000	1.754695 
3384.000000	1.752341 
3382.000000	1.753073 
3380.000000	1.758721 
3378.000000	1.763378 
3376.000000	1.758715 
3374.000000	1.750525 
3372.000000	1.750257 
3370.000000	1.751523 
3368.000000	1.748356 
3366.000000	1.744873 
3364.000000	1.740164 
3362.000000	1.744534 
3360.000000	1.752090 
3358.000000	1.753443 
3356.000000	1.750286 
3354.000000	1.745818 
3352.000000	1.744304 
3350.000000	1.748937 
3348.000000	1.748931 
3346.000000	1.747146 
3344.000000	1.749931 
3342.000000	1.746666 
3340.000000	1.735106 
3338.000000	1.730902 
3336.000000	1.737900 
3334.000000	1.742761 
3332.000000	1.741949 
3330.000000	1.740808 
3328.000000	1.740392 
3326.000000	1.744000 
3324.000000	1.745063 
3322.000000	1.740113 
3320.000000	1.735607 
3318.000000	1.736955 
3316.000000	1.731281 
3314.000000	1.730151 
3312.000000	1.735534 
3310.000000	1.737068 
3308.000000	1.742779 
3306.000000	1.746741 
3304.000000	1.743334 
3302.000000	1.738013 
3300.000000	1.734758 
3298.000000	1.732426 
3296.000000	1.734342 
3294.000000	1.738381 
3292.000000	1.738880 
3290.000000	1.739954 
3288.000000	1.741629 
3286.000000	1.741207 
3284.000000	1.739363 
3282.000000	1.730657 
3280.000000	1.726430 
3278.000000	1.731660 
3276.000000	1.733243 
3274.000000	1.729879 
3272.000000	1.726000 
3270.000000	1.726981 
3268.000000	1.728951 
3266.000000	1.729151 
3264.000000	1.731488 
3262.000000	1.730540 
3260.000000	1.727120 
3258.000000	1.725317 
3256.000000	1.722691 
3254.000000	1.720097 
3252.000000	1.718469 
3250.000000	1.721866 
3248.000000	1.726132 
3246.000000	1.726430 
3244.000000	1.724394 
3242.000000	1.722904 
3240.000000	1.727357 
3238.000000	1.730107 
3236.000000	1.723588 
3234.000000	1.715142 
3232.000000	1.707379 
3230.000000	1.707174 
3228.000000	1.711158 
3226.000000	1.712662 
3224.000000	1.720542 
3222.000000	1.721937 
3220.000000	1.719874 
3218.000000	1.723227 
3216.000000	1.722237 
3214.000000	1.719510 
3212.000000	1.718204 
3210.000000	1.716164 
3208.000000	1.718155 
3206.000000	1.714449 
3204.000000	1.713062 
3202.000000	1.713704 
3200.000000	1.720406 
3198.000000	1.724197 
3196.000000	1.713357 
3194.000000	1.707496 
3192.000000	1.708066 
3190.000000	1.705747 
3188.000000	1.701399 
3186.000000	1.700993 
3184.000000	1.705662 
3182.000000	1.707559 
3180.000000	1.701243 
3178.000000	1.699955 
3176.000000	1.702254 
3174.000000	1.698629 
3172.000000	1.701134 
3170.000000	1.708494 
3168.000000	1.711094 
3166.000000	1.710041 
3164.000000	1.707754 
3162.000000	1.702009 
3160.000000	1.698753 
3158.000000	1.702415 
3156.000000	1.706757 
3154.000000	1.705373 
3152.000000	1.697936 
3150.000000	1.695264 
3148.000000	1.695398 
3146.000000	1.696086 
3144.000000	1.692410 
3142.000000	1.688780 
3140.000000	1.689382 
3138.000000	1.690599 
3136.000000	1.686602 
3134.000000	1.688163 
3132.000000	1.692033 
3130.000000	1.686059 
3128.000000	1.682980 
3126.000000	1.681625 
3124.000000	1.679595 
3122.000000	1.686491 
3120.000000	1.693722 
3118.000000	1.691239 
3116.000000	1.687730 
3114.000000	1.686486 
3112.000000	1.685893 
3110.000000	1.681560 
3108.000000	1.679358 
3106.000000	1.679858 
3104.000000	1.679432 
3102.000000	1.681540 
3100.000000	1.678646 
3098.000000	1.673036 
3096.000000	1.667427 
3094.000000	1.670484 
3092.000000	1.673095 
3090.000000	1.670527 
3088.000000	1.670692 
3086.000000	1.673183 
3084.000000	1.671309 
3082.000000	1.671717 
3080.000000	1.676031 
3078.000000	1.678676 
3076.000000	1.679274 
3074.000000	1.673456 
3072.000000	1.666634 
3070.000000	1.667110 
3068.000000	1.664147 
3066.000000	1.663369 
3064.000000	1.666418 
3062.000000	1.666682 
3060.000000	1.664821 
3058.000000	1.660697 
3056.000000	1.660513 
3054.000000	1.658202 
3052.000000	1.652244 
3050.000000	1.655440 
3048.000000	1.664783 
3046.000000	1.664367 
3044.000000	1.659968 
3042.000000	1.661889 
3040.000000	1.665410 
3038.000000	1.667917 
3036.000000	1.665693 
3034.000000	1.666600 
3032.000000	1.662083 
3030.000000	1.653352 
3028.000000	1.657035 
3026.000000	1.659429 
3024.000000	1.661366 
3022.000000	1.664243 
3020.000000	1.661371 
3018.000000	1.656274 
3016.000000	1.652444 
3014.000000	1.653743 
3012.000000	1.652514 
3010.000000	1.646437 
3008.000000	1.642597 
3006.000000	1.649265 
3004.000000	1.655791 
3002.000000	1.649700 
3000.000000	1.641054 
2998.000000	1.645292 
2996.000000	1.659453 
2994.000000	1.659902 
2992.000000	1.652123 
2990.000000	1.652583 
2988.000000	1.649247 
2986.000000	1.644949 
2984.000000	1.646946 
2982.000000	1.655468 
2980.000000	1.660494 
2978.000000	1.658221 
2976.000000	1.655056 
2974.000000	1.653012 
2972.000000	1.651413 
2970.000000	1.654827 
2968.000000	1.651779 
2966.000000	1.648583 
2964.000000	1.658574 
2962.000000	1.666836 
2960.000000	1.663627 
2958.000000	1.652537 
2956.000000	1.650143 
2954.000000	1.661946 
2952.000000	1.669980 
2950.000000	1.663780 
2948.000000	1.654841 
2946.000000	1.649843 
2944.000000	1.649838 
2942.000000	1.654271 
2940.000000	1.652937 
2938.000000	1.654598 
2936.000000	1.658150 
2934.000000	1.657373 
2932.000000	1.668361 
2930.000000	1.669936 
2928.000000	1.662874 
2926.000000	1.662997 
2924.000000	1.664630 
2922.000000	1.664448 
2920.000000	1.663150 
2918.000000	1.661024 
2916.000000	1.660380 
2914.000000	1.660219 
2912.000000	1.660072 
2910.000000	1.661618 
2908.000000	1.657303 
2906.000000	1.647410 
2904.000000	1.652616 
2902.000000	1.656950 
2900.000000	1.651074 
2898.000000	1.641094 
2896.000000	1.630598 
2894.000000	1.634878 
2892.000000	1.637341 
2890.000000	1.638794 
2888.000000	1.645580 
2886.000000	1.647309 
2884.000000	1.638515 
2882.000000	1.634623 
2880.000000	1.638065 
2878.000000	1.641856 
2876.000000	1.640067 
2874.000000	1.641520 
2872.000000	1.640741 
2870.000000	1.635191 
2868.000000	1.635750 
2866.000000	1.637498 
2864.000000	1.629535 
2862.000000	1.631169 
2860.000000	1.648206 
2858.000000	1.657524 
2856.000000	1.648878 
2854.000000	1.629959 
2852.000000	1.625412 
2850.000000	1.636780 
2848.000000	1.637953 
2846.000000	1.638123 
2844.000000	1.640832 
2842.000000	1.638330 
2840.000000	1.632922 
2838.000000	1.624692 
2836.000000	1.622408 
2834.000000	1.625146 
2832.000000	1.627309 
2830.000000	1.624051 
2828.000000	1.617634 
2826.000000	1.615322 
2824.000000	1.621493 
2822.000000	1.626537 
2820.000000	1.621761 
2818.000000	1.622382 
2816.000000	1.623289 
2814.000000	1.618261 
2812.000000	1.613673 
2810.000000	1.606470 
2808.000000	1.608185 
2806.000000	1.617896 
2804.000000	1.622369 
2802.000000	1.619277 
2800.000000	1.616764 
2798.000000	1.620602 
2796.000000	1.620247 
2794.000000	1.618085 
2792.000000	1.612866 
2790.000000	1.606571 
2788.000000	1.604921 
2786.000000	1.609337 
2784.000000	1.615207 
2782.000000	1.613626 
2780.000000	1.608681 
2778.000000	1.611198 
2776.000000	1.615673 
2774.000000	1.614141 
2772.000000	1.614124 
2770.000000	1.617145 
2768.000000	1.615916 
2766.000000	1.614708 
2764.000000	1.614729 
2762.000000	1.615425 
2760.000000	1.616772 
2758.000000	1.614653 
2756.000000	1.612346 
2754.000000	1.614401 
2752.000000	1.615374 
2750.000000	1.614606 
2748.000000	1.615587 
2746.000000	1.615831 
2744.000000	1.614533 
2742.000000	1.614312 
2740.000000	1.615921 
2738.000000	1.617282 
2736.000000	1.613899 
2734.000000	1.612108 
2732.000000	1.615275 
2730.000000	1.613677 
2728.000000	1.613295 
2726.000000	1.617106 
2724.000000	1.614457 
2722.000000	1.609000 
2720.000000	1.606621 
2718.000000	1.605739 
2716.000000	1.607916 
2714.000000	1.608824 
2712.000000	1.609775 
2710.000000	1.608533 
2708.000000	1.609392 
2706.000000	1.612058 
2704.000000	1.610809 
2702.000000	1.610058 
2700.000000	1.610345 
2698.000000	1.607694 
2696.000000	1.606571 
2694.000000	1.610256 
2692.000000	1.613201 
2690.000000	1.608302 
2688.000000	1.601880 
2686.000000	1.604155 
2684.000000	1.604908 
2682.000000	1.599881 
2680.000000	1.597531 
2678.000000	1.599313 
2676.000000	1.602531 
2674.000000	1.600913 
2672.000000	1.599935 
2670.000000	1.600129 
2668.000000	1.596700 
2666.000000	1.597654 
2664.000000	1.598643 
2662.000000	1.597219 
2660.000000	1.597584 
2658.000000	1.595972 
2656.000000	1.598524 
2654.000000	1.600417 
2652.000000	1.598544 
2650.000000	1.595613 
2648.000000	1.597318 
2646.000000	1.599951 
2644.000000	1.597756 
2642.000000	1.593921 
2640.000000	1.593385 
2638.000000	1.600508 
2636.000000	1.605914 
2634.000000	1.602945 
2632.000000	1.598639 
2630.000000	1.596193 
2628.000000	1.597600 
2626.000000	1.600657 
2624.000000	1.600913 
2622.000000	1.600714 
2620.000000	1.601955 
2618.000000	1.601574 
2616.000000	1.598602 
2614.000000	1.597953 
2612.000000	1.598700 
2610.000000	1.597314 
2608.000000	1.592817 
2606.000000	1.590734 
2604.000000	1.592132 
2602.000000	1.590887 
2600.000000	1.589751 
2598.000000	1.588826 
2596.000000	1.588998 
2594.000000	1.592853 
2592.000000	1.593551 
2590.000000	1.593263 
2588.000000	1.592910 
2586.000000	1.592525 
2584.000000	1.593901 
2582.000000	1.593775 
2580.000000	1.594047 
2578.000000	1.593722 
2576.000000	1.590306 
2574.000000	1.590581 
2572.000000	1.590234 
2570.000000	1.589280 
2568.000000	1.588850 
2566.000000	1.587238 
2564.000000	1.586478 
2562.000000	1.586742 
2560.000000	1.589445 
2558.000000	1.589002 
2556.000000	1.585285 
2554.000000	1.582228 
2552.000000	1.585875 
2550.000000	1.585437 
2548.000000	1.582560 
2546.000000	1.583718 
2544.000000	1.586834 
2542.000000	1.588605 
2540.000000	1.585540 
2538.000000	1.583635 
2536.000000	1.586806 
2534.000000	1.589936 
2532.000000	1.587510 
2530.000000	1.582988 
2528.000000	1.584720 
2526.000000	1.585644 
2524.000000	1.583952 
2522.000000	1.587090 
2520.000000	1.590085 
2518.000000	1.586726 
2516.000000	1.583976 
2514.000000	1.585584 
2512.000000	1.585261 
2510.000000	1.587522 
2508.000000	1.590117 
2506.000000	1.590230 
2504.000000	1.587094 
2502.000000	1.581880 
2500.000000	1.582149 
2498.000000	1.581631 
2496.000000	1.585209 
2494.000000	1.585118 
2492.000000	1.579644 
2490.000000	1.581054 
2488.000000	1.581406 
2486.000000	1.581169 
2484.000000	1.582133 
2482.000000	1.578358 
2480.000000	1.577344 
2478.000000	1.579790 
2476.000000	1.583913 
2474.000000	1.588107 
2472.000000	1.587538 
2470.000000	1.583659 
2468.000000	1.580022 
2466.000000	1.574194 
2464.000000	1.573100 
2462.000000	1.577629 
2460.000000	1.576835 
2458.000000	1.576972 
2456.000000	1.576101 
2454.000000	1.573942 
2452.000000	1.576101 
2450.000000	1.577379 
2448.000000	1.573984 
2446.000000	1.572179 
2444.000000	1.575478 
2442.000000	1.580483 
2440.000000	1.578996 
2438.000000	1.574287 
2436.000000	1.572945 
2434.000000	1.570774 
2432.000000	1.573185 
2430.000000	1.575715 
2428.000000	1.575244 
2426.000000	1.575973 
2424.000000	1.575018 
2422.000000	1.573705 
2420.000000	1.573534 
2418.000000	1.571059 
2416.000000	1.570389 
2414.000000	1.575848 
2412.000000	1.576886 
2410.000000	1.572477 
2408.000000	1.572570 
2406.000000	1.570235 
2404.000000	1.567270 
2402.000000	1.572144 
2400.000000	1.575151 
2398.000000	1.573100 
2396.000000	1.571735 
2394.000000	1.571847 
2392.000000	1.570208 
2390.000000	1.568093 
2388.000000	1.569435 
2386.000000	1.570859 
2384.000000	1.571754 
2382.000000	1.570597 
2380.000000	1.564204 
2378.000000	1.561659 
2376.000000	1.562653 
2374.000000	1.563126 
2372.000000	1.566564 
2370.000000	1.569289 
2368.000000	1.575676 
2366.000000	1.583040 
2364.000000	1.585927 
2362.000000	1.580696 
2360.000000	1.576218 
2358.000000	1.587762 
2356.000000	1.605580 
2354.000000	1.608908 
2352.000000	1.599486 
2350.000000	1.591441 
2348.000000	1.577469 
2346.000000	1.565508 
2344.000000	1.570150 
2342.000000	1.574194 
2340.000000	1.571661 
2338.000000	1.571943 
2336.000000	1.574412 
2334.000000	1.583555 
2332.000000	1.585448 
2330.000000	1.584668 
2328.000000	1.588376 
2326.000000	1.590121 
2324.000000	1.588721 
2322.000000	1.586226 
2320.000000	1.584696 
2318.000000	1.588151 
2316.000000	1.595405 
2314.000000	1.596234 
2312.000000	1.595011 
2310.000000	1.596724 
2308.000000	1.593661 
2306.000000	1.595281 
2304.000000	1.598935 
2302.000000	1.600430 
2300.000000	1.605785 
2298.000000	1.604205 
2296.000000	1.602423 
2294.000000	1.604583 
2292.000000	1.607853 
2290.000000	1.615946 
2288.000000	1.622859 
2286.000000	1.625749 
2284.000000	1.625098 
2282.000000	1.631249 
2280.000000	1.640433 
2278.000000	1.649279 
2276.000000	1.660399 
2274.000000	1.668728 
2272.000000	1.678858 
2270.000000	1.684504 
2268.000000	1.693809 
2266.000000	1.708330 
2264.000000	1.714825 
2262.000000	1.718323 
2260.000000	1.725114 
2258.000000	1.735010 
2256.000000	1.740796 
2254.000000	1.740039 
2252.000000	1.743873 
2250.000000	1.744948 
2248.000000	1.742138 
2246.000000	1.739908 
2244.000000	1.737266 
2242.000000	1.738307 
2240.000000	1.738007 
2238.000000	1.732901 
2236.000000	1.730540 
2234.000000	1.724943 
2232.000000	1.709861 
2230.000000	1.706963 
2228.000000	1.705778 
2226.000000	1.701899 
2224.000000	1.705205 
2222.000000	1.702113 
2220.000000	1.697446 
2218.000000	1.696487 
2216.000000	1.704151 
2214.000000	1.725427 
2212.000000	1.728093 
2210.000000	1.713576 
2208.000000	1.712640 
2206.000000	1.720831 
2204.000000	1.727833 
2202.000000	1.720776 
2200.000000	1.713806 
2198.000000	1.727468 
2196.000000	1.735697 
2194.000000	1.723484 
2192.000000	1.712859 
2190.000000	1.713988 
2188.000000	1.724433 
2186.000000	1.733310 
2184.000000	1.720765 
2182.000000	1.709330 
2180.000000	1.698815 
2178.000000	1.691839 
2176.000000	1.696004 
2174.000000	1.691544 
2172.000000	1.689043 
2170.000000	1.692833 
2168.000000	1.690451 
2166.000000	1.688053 
2164.000000	1.685692 
2162.000000	1.693922 
2160.000000	1.696771 
2158.000000	1.686617 
2156.000000	1.686532 
2154.000000	1.703377 
2152.000000	1.720580 
2150.000000	1.728768 
2148.000000	1.732459 
2146.000000	1.739243 
2144.000000	1.753150 
2142.000000	1.762898 
2140.000000	1.757357 
2138.000000	1.750467 
2136.000000	1.741235 
2134.000000	1.735478 
2132.000000	1.729295 
2130.000000	1.718567 
2128.000000	1.727656 
2126.000000	1.752265 
2124.000000	1.768311 
2122.000000	1.782852 
2120.000000	1.794347 
2118.000000	1.804793 
2116.000000	1.808832 
2114.000000	1.797206 
2112.000000	1.791437 
2110.000000	1.800234 
2108.000000	1.794115 
2106.000000	1.771620 
2104.000000	1.755012 
2102.000000	1.747835 
2100.000000	1.739971 
2098.000000	1.732191 
2096.000000	1.734892 
2094.000000	1.752646 
2092.000000	1.761079 
2090.000000	1.762491 
2088.000000	1.756984 
2086.000000	1.744977 
2084.000000	1.738659 
2082.000000	1.737396 
2080.000000	1.737956 
2078.000000	1.722319 
2076.000000	1.698370 
2074.000000	1.674311 
2072.000000	1.650014 
2070.000000	1.627695 
2068.000000	1.607756 
2066.000000	1.590210 
2064.000000	1.572852 
2062.000000	1.560190 
2060.000000	1.554003 
2058.000000	1.548682 
2056.000000	1.538420 
2054.000000	1.530992 
2052.000000	1.532031 
2050.000000	1.532249 
2048.000000	1.526995 
2046.000000	1.521054 
2044.000000	1.513537 
2042.000000	1.510571 
2040.000000	1.513024 
2038.000000	1.514013 
2036.000000	1.513202 
2034.000000	1.512649 
2032.000000	1.511969 
2030.000000	1.512228 
2028.000000	1.510749 
2026.000000	1.509271 
2024.000000	1.510900 
2022.000000	1.508623 
2020.000000	1.504705 
2018.000000	1.503569 
2016.000000	1.504735 
2014.000000	1.504368 
2012.000000	1.503938 
2010.000000	1.503163 
2008.000000	1.503522 
2006.000000	1.503496 
2004.000000	1.502069 
2002.000000	1.500074 
2000.000000	1.498528 
1998.000000	1.497066 
1996.000000	1.498613 
1994.000000	1.498030 
1992.000000	1.496316 
1990.000000	1.497912 
1988.000000	1.500097 
1986.000000	1.502369 
1984.000000	1.501445 
1982.000000	1.495936 
1980.000000	1.490231 
1978.000000	1.490371 
1976.000000	1.492168 
1974.000000	1.491211 
1972.000000	1.490295 
1970.000000	1.489534 
1968.000000	1.491246 
1966.000000	1.495829 
1964.000000	1.494224 
1962.000000	1.488314 
1960.000000	1.487866 
1958.000000	1.491834 
1956.000000	1.488911 
1954.000000	1.488892 
1952.000000	1.489444 
1950.000000	1.487411 
1948.000000	1.484760 
1946.000000	1.479059 
1944.000000	1.475779 
1942.000000	1.483227 
1940.000000	1.486889 
1938.000000	1.485570 
1936.000000	1.485051 
1934.000000	1.481085 
1932.000000	1.479992 
1930.000000	1.482151 
1928.000000	1.482375 
1926.000000	1.477986 
1924.000000	1.476117 
1922.000000	1.482365 
1920.000000	1.482387 
1918.000000	1.485944 
1916.000000	1.486721 
1914.000000	1.479236 
1912.000000	1.474703 
1910.000000	1.474410 
1908.000000	1.477637 
1906.000000	1.477765 
1904.000000	1.476002 
1902.000000	1.472368 
1900.000000	1.469515 
1898.000000	1.469292 
1896.000000	1.471668 
1894.000000	1.472543 
1892.000000	1.468999 
1890.000000	1.466962 
1888.000000	1.468945 
1886.000000	1.463728 
1884.000000	1.460928 
1882.000000	1.463165 
1880.000000	1.464379 
1878.000000	1.464246 
1876.000000	1.463259 
1874.000000	1.458910 
1872.000000	1.452407 
1870.000000	1.450902 
1868.000000	1.460485 
1866.000000	1.465596 
1864.000000	1.461973 
1862.000000	1.457896 
1860.000000	1.458012 
1858.000000	1.458797 
1856.000000	1.459586 
1854.000000	1.458589 
1852.000000	1.454345 
1850.000000	1.447512 
1848.000000	1.445428 
1846.000000	1.446680 
1844.000000	1.455694 
1842.000000	1.459369 
1840.000000	1.448723 
1838.000000	1.445394 
1836.000000	1.445423 
1834.000000	1.441714 
1832.000000	1.434566 
1830.000000	1.441837 
1828.000000	1.453403 
1826.000000	1.449384 
1824.000000	1.449093 
1822.000000	1.446226 
1820.000000	1.440619 
1818.000000	1.438770 
1816.000000	1.438517 
1814.000000	1.436765 
1812.000000	1.434893 
1810.000000	1.436584 
1808.000000	1.439239 
1806.000000	1.437969 
1804.000000	1.434338 
1802.000000	1.432936 
1800.000000	1.435888 
1798.000000	1.437187 
1796.000000	1.432109 
1794.000000	1.424232 
1792.000000	1.433101 
1790.000000	1.439220 
1788.000000	1.429266 
1786.000000	1.425940 
1784.000000	1.428005 
1782.000000	1.425422 
1780.000000	1.426139 
1778.000000	1.423205 
1776.000000	1.414182 
1774.000000	1.408327 
1772.000000	1.419972 
1770.000000	1.427794 
1768.000000	1.426446 
1766.000000	1.425576 
1764.000000	1.412236 
1762.000000	1.413937 
1760.000000	1.420902 
1758.000000	1.412257 
1756.000000	1.413229 
1754.000000	1.409333 
1752.000000	1.403485 
1750.000000	1.413446 
1748.000000	1.418673 
1746.000000	1.417558 
1744.000000	1.413331 
1742.000000	1.408884 
1740.000000	1.407763 
1738.000000	1.413387 
1736.000000	1.391939 
1734.000000	1.399802 
1732.000000	1.423134 
1730.000000	1.413133 
1728.000000	1.410517 
1726.000000	1.405032 
1724.000000	1.403019 
1722.000000	1.402930 
1720.000000	1.389097 
1718.000000	1.393329 
1716.000000	1.417282 
1714.000000	1.417472 
1712.000000	1.409277 
1710.000000	1.399664 
1708.000000	1.389802 
1706.000000	1.389729 
1704.000000	1.392465 
1702.000000	1.375318 
1700.000000	1.398743 
1698.000000	1.403470 
1696.000000	1.392605 
1694.000000	1.400663 
1692.000000	1.383427 
1690.000000	1.375170 
1688.000000	1.372641 
1686.000000	1.358742 
1684.000000	1.379807 
1682.000000	1.398173 
1680.000000	1.381038 
1678.000000	1.370359 
1676.000000	1.368292 
1674.000000	1.382789 
1672.000000	1.372936 
1670.000000	1.368645 
1668.000000	1.379244 
1666.000000	1.369927 
1664.000000	1.359655 
1662.000000	1.367201 
1660.000000	1.368693 
1658.000000	1.360096 
1656.000000	1.341564 
1654.000000	1.339462 
1652.000000	1.392053 
1650.000000	1.372934 
1648.000000	1.349278 
1646.000000	1.368730 
1644.000000	1.372011 
1642.000000	1.357648 
1640.000000	1.351181 
1638.000000	1.342734 
1636.000000	1.354398 
1634.000000	1.378216 
1632.000000	1.364946 
1630.000000	1.351346 
1628.000000	1.353234 
1626.000000	1.353589 
1624.000000	1.350195 
1622.000000	1.357056 
1620.000000	1.349099 
1618.000000	1.337442 
1616.000000	1.351042 
1614.000000	1.351895 
1612.000000	1.340114 
1610.000000	1.337287 
1608.000000	1.335631 
1606.000000	1.332477 
1604.000000	1.328560 
1602.000000	1.325365 
1600.000000	1.322538 
1598.000000	1.318081 
1596.000000	1.316417 
1594.000000	1.316986 
1592.000000	1.313469 
1590.000000	1.308499 
1588.000000	1.307014 
1586.000000	1.306636 
1584.000000	1.307140 
1582.000000	1.304346 
1580.000000	1.297962 
1578.000000	1.290564 
1576.000000	1.309819 
1574.000000	1.316587 
1572.000000	1.295573 
1570.000000	1.292322 
1568.000000	1.302457 
1566.000000	1.298989 
1564.000000	1.295897 
1562.000000	1.279898 
1560.000000	1.273683 
1558.000000	1.320753 
1556.000000	1.309367 
1554.000000	1.293888 
1552.000000	1.289930 
1550.000000	1.285590 
1548.000000	1.281617 
1546.000000	1.273691 
1544.000000	1.273285 
1542.000000	1.272999 
1540.000000	1.288489 
1538.000000	1.296745 
1536.000000	1.275272 
1534.000000	1.270848 
1532.000000	1.279918 
1530.000000	1.266206 
1528.000000	1.255774 
1526.000000	1.258033 
1524.000000	1.257833 
1522.000000	1.256833 
1520.000000	1.269095 
1518.000000	1.261587 
1516.000000	1.261874 
1514.000000	1.254637 
1512.000000	1.245491 
1510.000000	1.239723 
1508.000000	1.239194 
1506.000000	1.274339 
1504.000000	1.270599 
1502.000000	1.247299 
1500.000000	1.235929 
1498.000000	1.234001 
1496.000000	1.243047 
1494.000000	1.243403 
1492.000000	1.236338 
1490.000000	1.248079 
1488.000000	1.252608 
1486.000000	1.240612 
1484.000000	1.231374 
1482.000000	1.231729 
1480.000000	1.232745 
1478.000000	1.223240 
1476.000000	1.221444 
1474.000000	1.229491 
1472.000000	1.245546 
1470.000000	1.239938 
1468.000000	1.221877 
1466.000000	1.218759 
1464.000000	1.232174 
1462.000000	1.232199 
1460.000000	1.216785 
1458.000000	1.216419 
1456.000000	1.237302 
1454.000000	1.230962 
1452.000000	1.219323 
1450.000000	1.212358 
1448.000000	1.210370 
1446.000000	1.213692 
1444.000000	1.209407 
1442.000000	1.203662 
1440.000000	1.194459 
1438.000000	1.190873 
1436.000000	1.200909 
1434.000000	1.192008 
1432.000000	1.181922 
1430.000000	1.187410 
1428.000000	1.188387 
1426.000000	1.177656 
1424.000000	1.175809 
1422.000000	1.171636 
1420.000000	1.169681 
1418.000000	1.179646 
1416.000000	1.174924 
1414.000000	1.168552 
1412.000000	1.163359 
1410.000000	1.161066 
1408.000000	1.157562 
1406.000000	1.149917 
1404.000000	1.150173 
1402.000000	1.149261 
1400.000000	1.148509 
1398.000000	1.149696 
1396.000000	1.144063 
1394.000000	1.146275 
1392.000000	1.143160 
1390.000000	1.131466 
1388.000000	1.131615 
1386.000000	1.137832 
1384.000000	1.133772 
1382.000000	1.127345 
1380.000000	1.123589 
1378.000000	1.121845 
1376.000000	1.121338 
1374.000000	1.121157 
1372.000000	1.118068 
1370.000000	1.114447 
1368.000000	1.111907 
1366.000000	1.106063 
1364.000000	1.099799 
1362.000000	1.101083 
1360.000000	1.100505 
1358.000000	1.097081 
1356.000000	1.097353 
1354.000000	1.095125 
1352.000000	1.089965 
1350.000000	1.088709 
1348.000000	1.085477 
1346.000000	1.080023 
1344.000000	1.077001 
1342.000000	1.075252 
1340.000000	1.074934 
1338.000000	1.073282 
1336.000000	1.068956 
1334.000000	1.067261 
1332.000000	1.065518 
1330.000000	1.062557 
1328.000000	1.062381 
1326.000000	1.061302 
1324.000000	1.059052 
1322.000000	1.056204 
1320.000000	1.052763 
1318.000000	1.051596 
1316.000000	1.049462 
1314.000000	1.046099 
1312.000000	1.044221 
1310.000000	1.042239 
1308.000000	1.041900 
1306.000000	1.040576 
1304.000000	1.037464 
1302.000000	1.034626 
1300.000000	1.032086 
1298.000000	1.029726 
1296.000000	1.028677 
1294.000000	1.026848 
1292.000000	1.024206 
1290.000000	1.022166 
1288.000000	1.020819 
1286.000000	1.018312 
1284.000000	1.015640 
1282.000000	1.013135 
1280.000000	1.009686 
1278.000000	1.005738 
1276.000000	1.003839 
1274.000000	1.003794 
1272.000000	1.002086 
1270.000000	0.999629 
1268.000000	0.998086 
1266.000000	0.996070 
1264.000000	0.993366 
1262.000000	0.992156 
1260.000000	0.991259 
1258.000000	0.989528 
1256.000000	0.987710 
1254.000000	0.986287 
1252.000000	0.984614 
1250.000000	0.984049 
1248.000000	0.983416 
1246.000000	0.982591 
1244.000000	0.981883 
1242.000000	0.983939 
1240.000000	0.984875 
1238.000000	0.984840 
1236.000000	0.986171 
1234.000000	0.987213 
1232.000000	0.988428 
1230.000000	0.991353 
1228.000000	0.995375 
1226.000000	1.000409 
1224.000000	1.006009 
1222.000000	1.010778 
1220.000000	1.016236 
1218.000000	1.024019 
1216.000000	1.032609 
1214.000000	1.042613 
1212.000000	1.052977 
1210.000000	1.063811 
1208.000000	1.076207 
1206.000000	1.088278 
1204.000000	1.099894 
1202.000000	1.111737 
1200.000000	1.125098 
1198.000000	1.139873 
1196.000000	1.153579 
1194.000000	1.164673 
1192.000000	1.178487 
1190.000000	1.193944 
1188.000000	1.206164 
1186.000000	1.219598 
1184.000000	1.235516 
1182.000000	1.249132 
1180.000000	1.261948 
1178.000000	1.272888 
1176.000000	1.283990 
1174.000000	1.295706 
1172.000000	1.307487 
1170.000000	1.322808 
1168.000000	1.333553 
1166.000000	1.340033 
1164.000000	1.350777 
1162.000000	1.365988 
1160.000000	1.376713 
1158.000000	1.381690 
1156.000000	1.391038 
1154.000000	1.401999 
1152.000000	1.408669 
1150.000000	1.414037 
1148.000000	1.423373 
1146.000000	1.434921 
1144.000000	1.440634 
1142.000000	1.444710 
1140.000000	1.450431 
1138.000000	1.456555 
1136.000000	1.462381 
1134.000000	1.467405 
1132.000000	1.475071 
1130.000000	1.482236 
1128.000000	1.484925 
1126.000000	1.485194 
1124.000000	1.491140 
1122.000000	1.503968 
1120.000000	1.509325 
1118.000000	1.510440 
1116.000000	1.513716 
1114.000000	1.514988 
1112.000000	1.516934 
1110.000000	1.522210 
1108.000000	1.530623 
1106.000000	1.535145 
1104.000000	1.534538 
1102.000000	1.538309 
1100.000000	1.546795 
1098.000000	1.552042 
1096.000000	1.556315 
1094.000000	1.566140 
1092.000000	1.571303 
1090.000000	1.569977 
1088.000000	1.575579 
1086.000000	1.585321 
1084.000000	1.595817 
1082.000000	1.606734 
1080.000000	1.611706 
1078.000000	1.612951 
1076.000000	1.618450 
1074.000000	1.628782 
1072.000000	1.636283 
1070.000000	1.637539 
1068.000000	1.632011 
1066.000000	1.637171 
1064.000000	1.650176 
1062.000000	1.655758 
1060.000000	1.650120 
1058.000000	1.638146 
1056.000000	1.629359 
1054.000000	1.621346 
1052.000000	1.615079 
1050.000000	1.612581 
1048.000000	1.612253 
1046.000000	1.599091 
1044.000000	1.581516 
1042.000000	1.568694 
1040.000000	1.551994 
1038.000000	1.539275 
1036.000000	1.523781 
1034.000000	1.504398 
1032.000000	1.484151 
1030.000000	1.458865 
1028.000000	1.435804 
1026.000000	1.414451 
1024.000000	1.389546 
1022.000000	1.359824 
1020.000000	1.331994 
1018.000000	1.300838 
1016.000000	1.266996 
1014.000000	1.235949 
1012.000000	1.205223 
1010.000000	1.174042 
1008.000000	1.141291 
1006.000000	1.108587 
1004.000000	1.078804 
1002.000000	1.050399 
1000.000000	1.023082 
998.000000	 0.998749 
996.000000	 0.978095 
994.000000	 0.961124 
992.000000	 0.948403 
990.000000	 0.941684 
988.000000	 0.942449 
986.000000	 0.949241 
984.000000	 0.957134 
982.000000	 0.963493 
980.000000	 0.966479 
978.000000	 0.962318 
976.000000	 0.949426 
974.000000	 0.929594 
972.000000	 0.906420 
970.000000	 0.883469 
968.000000	 0.862426 
966.000000	 0.845038 
964.000000	 0.832086 
962.000000	 0.822300 
960.000000	 0.813743 
958.000000	 0.807717 
956.000000	 0.805904 
954.000000	 0.807709 
952.000000	 0.813468 
950.000000	 0.821723 
948.000000	 0.831155 
946.000000	 0.841488 
944.000000	 0.852589 
942.000000	 0.860800 
940.000000	 0.864423 
938.000000	 0.865198 
936.000000	 0.862595 
934.000000	 0.857019 
932.000000	 0.850236 
930.000000	 0.842625 
928.000000	 0.834237 
926.000000	 0.825589 
924.000000	 0.817877 
922.000000	 0.811975 
920.000000	 0.808174 
918.000000	 0.806330 
916.000000	 0.804782 
914.000000	 0.803236 
912.000000	 0.800660 
910.000000	 0.797900 
908.000000	 0.797521 
906.000000	 0.796052 
904.000000	 0.791729 
902.000000	 0.788684 
900.000000	 0.788041 
898.000000	 0.789491 
896.000000	 0.795676 
894.000000	 0.807606 
892.000000	 0.824166 
890.000000	 0.844861 
888.000000	 0.868979 
886.000000	 0.895044 
884.000000	 0.919939 
882.000000	 0.940559 
880.000000	 0.956130 
878.000000	 0.969149 
876.000000	 0.979774 
874.000000	 0.983494 
872.000000	 0.983100 
870.000000	 0.981226 
868.000000	 0.978915 
866.000000	 0.975143 
864.000000	 0.969099 
862.000000	 0.964564 
860.000000	 0.960220 
858.000000	 0.954455 
856.000000	 0.948839 
854.000000	 0.944980 
852.000000	 0.941635 
850.000000	 0.937679 
848.000000	 0.933950 
846.000000	 0.931495 
844.000000	 0.929601 
842.000000	 0.927656 
840.000000	 0.924399 
838.000000	 0.917669 
836.000000	 0.907421 
834.000000	 0.891324 
832.000000	 0.869863 
830.000000	 0.845326 
828.000000	 0.816613 
826.000000	 0.786334 
824.000000	 0.756311 
822.000000	 0.725417 
820.000000	 0.698196 
818.000000	 0.676752 
816.000000	 0.658480 
814.000000	 0.642734 
812.000000	 0.629440 
810.000000	 0.619546 
808.000000	 0.611458 
806.000000	 0.600941 
804.000000	 0.591993 
802.000000	 0.584662 
800.000000	 0.577490 
798.000000	 0.569211 
796.000000	 0.559784 
794.000000	 0.552192 
792.000000	 0.545801 
790.000000	 0.536926 
788.000000	 0.527404 
786.000000	 0.518682 
784.000000	 0.511501 
782.000000	 0.507078 
780.000000	 0.502367 
778.000000	 0.495037 
776.000000	 0.488294 
774.000000	 0.483236 
772.000000	 0.478085 
770.000000	 0.473283 
768.000000	 0.468759 
766.000000	 0.466814 
764.000000	 0.465399 
762.000000	 0.462543 
760.000000	 0.460549 
758.000000	 0.458915 
756.000000	 0.457761 
754.000000	 0.456097 
752.000000	 0.455696 
750.000000	 0.457485 
748.000000	 0.457985 
746.000000	 0.457465 
744.000000	 0.456912 
742.000000	 0.456878 
740.000000	 0.458107 
738.000000	 0.459912 
736.000000	 0.460498 
734.000000	 0.459533 
732.000000	 0.459844 
730.000000	 0.460860 
728.000000	 0.460891 
726.000000	 0.459456 
724.000000	 0.459625 
722.000000	 0.463131 
720.000000	 0.466412 
718.000000	 0.468824 
716.000000	 0.470544 
714.000000	 0.472437 
712.000000	 0.475668 
710.000000	 0.477280 
708.000000	 0.476793 
706.000000	 0.476106 
704.000000	 0.473884 
702.000000	 0.468969 
700.000000	 0.461925 
698.000000	 0.456083 
696.000000	 0.451907 
694.000000	 0.448916 
692.000000	 0.446896 
690.000000	 0.445661 
688.000000	 0.445837 
686.000000	 0.447666 
684.000000	 0.449076 
682.000000	 0.449315 
680.000000	 0.452220 
678.000000	 0.459521 
676.000000	 0.468127 
674.000000	 0.474613 
672.000000	 0.477315 
670.000000	 0.479835 
668.000000	 0.484018 
666.000000	 0.477115 
664.000000	 0.467752 
662.000000	 0.460933 
660.000000	 0.455933 
658.000000	 0.450311 
656.000000	 0.444301 
654.000000	 0.440773 
652.000000	 0.436990 
650.000000	 0.436139 
648.000000	 0.440478 
646.000000	 0.446006 
644.000000	 0.450166 
642.000000	 0.454217 
640.000000	 0.459295 
638.000000	 0.464378 
636.000000	 0.470838 
634.000000	 0.477361 
632.000000	 0.482262 
630.000000	 0.484045 
628.000000	 0.480726 
626.000000	 0.471323 
624.000000	 0.451229 
622.000000	 0.422832 
620.000000	 0.394493 
618.000000	 0.367528 
616.000000	 0.341869 
614.000000	 0.318821 
612.000000	 0.298440 
610.000000	 0.281022 
608.000000	 0.264929 
606.000000	 0.251262 
604.000000	 0.241373 
602.000000	 0.232256 
600.000000	 0.223424 
598.000000	 0.215747 
596.000000	 0.207892 
594.000000	 0.199625 
592.000000	 0.193420 
590.000000	 0.188190 
588.000000	 0.183246 
586.000000	 0.177723 
584.000000	 0.172988 
582.000000	 0.168523 
580.000000	 0.163560 
578.000000	 0.158819 
576.000000	 0.153917 
574.000000	 0.148492 
572.000000	 0.143479 
570.000000	 0.139137 
568.000000	 0.135307 
566.000000	 0.132073 
564.000000	 0.128214 
562.000000	 0.124140 
560.000000	 0.121633 
558.000000	 0.119246 
556.000000	 0.116149 
554.000000	 0.113664 
552.000000	 0.111824 
550.000000	 0.110497 
548.000000	 0.109366 
546.000000	 0.108154 
544.000000	 0.106678 
542.000000	 0.105199 
540.000000	 0.103612 
538.000000	 0.102250 
536.000000	 0.101592 
534.000000	 0.101602 
532.000000	 0.101131 
530.000000	 0.100550 
528.000000	 0.100340 
526.000000	 0.100451 
524.000000	 0.100078 
522.000000	 0.100318 
520.000000	 0.101274 
518.000000	 0.102758 
516.000000	 0.104110 
514.000000	 0.104762 
512.000000	 0.105400 
510.000000	 0.106142 
508.000000	 0.107701 
506.000000	 0.108340 
504.000000	 0.108442 
502.000000	 0.109468 
500.000000	 0.110543 
498.000000	 0.112006 
496.000000	 0.113849 
494.000000	 0.116426 
492.000000	 0.120180 
490.000000	 0.124290 
488.000000	 0.128731 
486.000000	 0.133395 
484.000000	 0.139304 
482.000000	 0.144304 
480.000000	 0.147996 
478.000000	 0.152385 
476.000000	 0.156154 
474.000000	 0.161278 
472.000000	 0.168003 
470.000000	 0.171537 
468.000000	 0.174116 
466.000000	 0.176630 
464.000000	 0.177883 
462.000000	 0.180464 
460.000000	 0.183349 
458.000000	 0.184125 
456.000000	 0.186141 
454.000000	 0.188653 
452.000000	 0.188220 
450.000000	 0.185163 

