PE IR       SUBTECH     SPECTRUM    ASCII       PEDS        1.60        
  -1
1911B8B.ASC
07/11/19
23:14:10.00
07/11/20
10:09:20.00
koro/arcerd
repet
450.000000
16









1004,02.19S
DTGS
MIR
KBR
52208
0.300000

4.000000
STRONG
RATIO
MAGNITUDE


DOUBLE SIDED
16
BIDIRECTIONAL
2




#HDR
-1
-1
#GR
CM-1
A
0.00000011920928955078
0.0
4400.000000
-2.000000
1976
8
1.845777
0.085573
#DATA
4400.000000	1.671488 
4398.000000	1.668240 
4396.000000	1.674820 
4394.000000	1.674795 
4392.000000	1.679358 
4390.000000	1.678572 
4388.000000	1.671906 
4386.000000	1.677428 
4384.000000	1.684704 
4382.000000	1.687136 
4380.000000	1.682970 
4378.000000	1.680026 
4376.000000	1.674247 
4374.000000	1.663212 
4372.000000	1.663875 
4370.000000	1.674683 
4368.000000	1.684965 
4366.000000	1.686109 
4364.000000	1.676424 
4362.000000	1.669786 
4360.000000	1.666125 
4358.000000	1.661276 
4356.000000	1.667355 
4354.000000	1.673251 
4352.000000	1.673168 
4350.000000	1.673578 
4348.000000	1.671129 
4346.000000	1.672335 
4344.000000	1.679086 
4342.000000	1.675270 
4340.000000	1.671644 
4338.000000	1.673861 
4336.000000	1.670086 
4334.000000	1.670629 
4332.000000	1.671843 
4330.000000	1.670678 
4328.000000	1.665468 
4326.000000	1.667813 
4324.000000	1.671537 
4322.000000	1.667731 
4320.000000	1.667803 
4318.000000	1.671362 
4316.000000	1.668491 
4314.000000	1.668713 
4312.000000	1.668752 
4310.000000	1.666634 
4308.000000	1.668346 
4306.000000	1.667634 
4304.000000	1.671620 
4302.000000	1.673597 
4300.000000	1.671634 
4298.000000	1.671892 
4296.000000	1.671008 
4294.000000	1.671042 
4292.000000	1.675511 
4290.000000	1.675334 
4288.000000	1.668182 
4286.000000	1.671027 
4284.000000	1.678685 
4282.000000	1.674409 
4280.000000	1.666466 
4278.000000	1.663274 
4276.000000	1.664563 
4274.000000	1.661452 
4272.000000	1.658640 
4270.000000	1.663694 
4268.000000	1.669404 
4266.000000	1.676493 
4264.000000	1.682142 
4262.000000	1.677078 
4260.000000	1.668163 
4258.000000	1.668593 
4256.000000	1.677871 
4254.000000	1.675633 
4252.000000	1.661153 
4250.000000	1.664448 
4248.000000	1.669796 
4246.000000	1.671571 
4244.000000	1.676109 
4242.000000	1.677403 
4240.000000	1.672281 
4238.000000	1.662712 
4236.000000	1.662122 
4234.000000	1.669153 
4232.000000	1.667582 
4230.000000	1.660072 
4228.000000	1.662436 
4226.000000	1.674164 
4224.000000	1.681535 
4222.000000	1.676733 
4220.000000	1.668105 
4218.000000	1.672121 
4216.000000	1.674345 
4214.000000	1.670435 
4212.000000	1.670009 
4210.000000	1.668877 
4208.000000	1.674497 
4206.000000	1.678019 
4204.000000	1.670469 
4202.000000	1.656786 
4200.000000	1.656373 
4198.000000	1.672276 
4196.000000	1.683589 
4194.000000	1.675408 
4192.000000	1.671833 
4190.000000	1.675766 
4188.000000	1.677324 
4186.000000	1.672267 
4184.000000	1.666951 
4182.000000	1.666783 
4180.000000	1.666744 
4178.000000	1.668414 
4176.000000	1.664611 
4174.000000	1.667893 
4172.000000	1.673905 
4170.000000	1.678582 
4168.000000	1.680587 
4166.000000	1.667808 
4164.000000	1.659978 
4162.000000	1.665991 
4160.000000	1.663274 
4158.000000	1.658555 
4156.000000	1.669927 
4154.000000	1.680800 
4152.000000	1.675525 
4150.000000	1.673646 
4148.000000	1.681933 
4146.000000	1.685236 
4144.000000	1.674878 
4142.000000	1.665703 
4140.000000	1.668877 
4138.000000	1.676276 
4136.000000	1.667888 
4134.000000	1.663880 
4132.000000	1.663684 
4130.000000	1.662850 
4128.000000	1.667985 
4126.000000	1.662731 
4124.000000	1.654832 
4122.000000	1.660470 
4120.000000	1.668139 
4118.000000	1.668076 
4116.000000	1.664401 
4114.000000	1.666288 
4112.000000	1.666620 
4110.000000	1.659585 
4108.000000	1.661841 
4106.000000	1.668559 
4104.000000	1.666509 
4102.000000	1.662336 
4100.000000	1.657637 
4098.000000	1.650940 
4096.000000	1.658155 
4094.000000	1.670877 
4092.000000	1.672048 
4090.000000	1.667990 
4088.000000	1.661922 
4086.000000	1.663045 
4084.000000	1.665180 
4082.000000	1.662412 
4080.000000	1.661499 
4078.000000	1.665938 
4076.000000	1.672267 
4074.000000	1.668211 
4072.000000	1.659892 
4070.000000	1.662193 
4068.000000	1.661927 
4066.000000	1.662835 
4064.000000	1.666600 
4062.000000	1.662993 
4060.000000	1.662103 
4058.000000	1.668144 
4056.000000	1.670498 
4054.000000	1.661380 
4052.000000	1.660171 
4050.000000	1.664372 
4048.000000	1.662531 
4046.000000	1.671629 
4044.000000	1.678843 
4042.000000	1.665899 
4040.000000	1.662378 
4038.000000	1.667688 
4036.000000	1.663570 
4034.000000	1.668346 
4032.000000	1.670140 
4030.000000	1.665861 
4028.000000	1.671153 
4026.000000	1.669999 
4024.000000	1.656434 
4022.000000	1.661172 
4020.000000	1.669849 
4018.000000	1.667302 
4016.000000	1.665425 
4014.000000	1.665137 
4012.000000	1.664917 
4010.000000	1.666000 
4008.000000	1.665760 
4006.000000	1.664425 
4004.000000	1.664472 
4002.000000	1.670979 
4000.000000	1.668318 
3998.000000	1.659401 
3996.000000	1.660811 
3994.000000	1.664042 
3992.000000	1.667230 
3990.000000	1.674976 
3988.000000	1.674883 
3986.000000	1.679580 
3984.000000	1.677078 
3982.000000	1.664300 
3980.000000	1.664678 
3978.000000	1.667683 
3976.000000	1.663202 
3974.000000	1.655262 
3972.000000	1.649686 
3970.000000	1.647751 
3968.000000	1.649321 
3966.000000	1.659122 
3964.000000	1.659684 
3962.000000	1.653067 
3960.000000	1.659471 
3958.000000	1.666087 
3956.000000	1.664525 
3954.000000	1.661452 
3952.000000	1.660243 
3950.000000	1.663045 
3948.000000	1.663894 
3946.000000	1.659538 
3944.000000	1.656349 
3942.000000	1.660153 
3940.000000	1.665535 
3938.000000	1.660342 
3936.000000	1.652672 
3934.000000	1.648400 
3932.000000	1.647567 
3930.000000	1.649058 
3928.000000	1.645942 
3926.000000	1.649760 
3924.000000	1.658324 
3922.000000	1.657632 
3920.000000	1.648372 
3918.000000	1.641235 
3916.000000	1.646056 
3914.000000	1.657359 
3912.000000	1.658853 
3910.000000	1.658400 
3908.000000	1.657096 
3906.000000	1.651213 
3904.000000	1.646034 
3902.000000	1.651060 
3900.000000	1.663002 
3898.000000	1.666528 
3896.000000	1.661513 
3894.000000	1.657472 
3892.000000	1.656617 
3890.000000	1.661020 
3888.000000	1.659282 
3886.000000	1.656781 
3884.000000	1.658796 
3882.000000	1.656725 
3880.000000	1.661309 
3878.000000	1.667105 
3876.000000	1.662612 
3874.000000	1.657101 
3872.000000	1.645681 
3870.000000	1.650773 
3868.000000	1.660920 
3866.000000	1.646983 
3864.000000	1.649007 
3862.000000	1.653916 
3860.000000	1.652356 
3858.000000	1.647148 
3856.000000	1.639891 
3854.000000	1.644328 
3852.000000	1.667423 
3850.000000	1.676684 
3848.000000	1.673368 
3846.000000	1.662036 
3844.000000	1.651014 
3842.000000	1.650671 
3840.000000	1.655618 
3838.000000	1.663017 
3836.000000	1.671119 
3834.000000	1.671484 
3832.000000	1.665195 
3830.000000	1.662088 
3828.000000	1.659240 
3826.000000	1.653608 
3824.000000	1.639959 
3822.000000	1.632611 
3820.000000	1.650338 
3818.000000	1.659325 
3816.000000	1.662978 
3814.000000	1.668824 
3812.000000	1.659481 
3810.000000	1.649035 
3808.000000	1.646364 
3806.000000	1.655135 
3804.000000	1.655988 
3802.000000	1.652863 
3800.000000	1.659292 
3798.000000	1.651148 
3796.000000	1.653258 
3794.000000	1.661537 
3792.000000	1.657764 
3790.000000	1.655547 
3788.000000	1.657533 
3786.000000	1.660347 
3784.000000	1.666144 
3782.000000	1.662050 
3780.000000	1.657129 
3778.000000	1.665971 
3776.000000	1.661433 
3774.000000	1.648832 
3772.000000	1.644990 
3770.000000	1.641716 
3768.000000	1.643106 
3766.000000	1.653627 
3764.000000	1.664702 
3762.000000	1.663212 
3760.000000	1.653911 
3758.000000	1.650449 
3756.000000	1.656607 
3754.000000	1.646226 
3752.000000	1.631971 
3750.000000	1.654911 
3748.000000	1.668718 
3746.000000	1.663198 
3744.000000	1.683369 
3742.000000	1.692537 
3740.000000	1.670823 
3738.000000	1.652472 
3736.000000	1.652770 
3734.000000	1.656701 
3732.000000	1.666187 
3730.000000	1.673607 
3728.000000	1.672427 
3726.000000	1.672383 
3724.000000	1.671464 
3722.000000	1.673066 
3720.000000	1.680403 
3718.000000	1.684454 
3716.000000	1.676453 
3714.000000	1.670372 
3712.000000	1.675452 
3710.000000	1.683199 
3708.000000	1.690558 
3706.000000	1.692089 
3704.000000	1.685858 
3702.000000	1.689574 
3700.000000	1.696843 
3698.000000	1.697162 
3696.000000	1.702494 
3694.000000	1.698453 
3692.000000	1.682865 
3690.000000	1.683859 
3688.000000	1.702525 
3686.000000	1.713367 
3684.000000	1.707765 
3682.000000	1.700448 
3680.000000	1.702342 
3678.000000	1.693272 
3676.000000	1.687347 
3674.000000	1.704397 
3672.000000	1.703601 
3670.000000	1.709018 
3668.000000	1.724235 
3666.000000	1.724608 
3664.000000	1.721414 
3662.000000	1.717491 
3660.000000	1.710248 
3658.000000	1.703664 
3656.000000	1.709336 
3654.000000	1.714578 
3652.000000	1.702358 
3650.000000	1.700676 
3648.000000	1.719120 
3646.000000	1.729667 
3644.000000	1.726733 
3642.000000	1.712731 
3640.000000	1.704974 
3638.000000	1.712485 
3636.000000	1.719255 
3634.000000	1.714712 
3632.000000	1.707939 
3630.000000	1.703743 
3628.000000	1.720657 
3626.000000	1.729662 
3624.000000	1.722576 
3622.000000	1.711584 
3620.000000	1.706857 
3618.000000	1.715873 
3616.000000	1.722368 
3614.000000	1.718816 
3612.000000	1.714863 
3610.000000	1.710402 
3608.000000	1.712021 
3606.000000	1.717993 
3604.000000	1.718507 
3602.000000	1.718588 
3600.000000	1.720776 
3598.000000	1.718329 
3596.000000	1.709988 
3594.000000	1.709293 
3592.000000	1.710775 
3590.000000	1.700952 
3588.000000	1.702854 
3586.000000	1.726628 
3584.000000	1.731025 
3582.000000	1.723441 
3580.000000	1.722401 
3578.000000	1.719825 
3576.000000	1.713041 
3574.000000	1.712480 
3572.000000	1.711642 
3570.000000	1.703638 
3568.000000	1.705515 
3566.000000	1.719195 
3564.000000	1.714401 
3562.000000	1.703680 
3560.000000	1.707348 
3558.000000	1.711211 
3556.000000	1.707886 
3554.000000	1.707010 
3552.000000	1.708494 
3550.000000	1.709585 
3548.000000	1.706799 
3546.000000	1.711925 
3544.000000	1.719825 
3542.000000	1.718930 
3540.000000	1.714626 
3538.000000	1.712613 
3536.000000	1.710216 
3534.000000	1.711701 
3532.000000	1.714895 
3530.000000	1.713897 
3528.000000	1.720646 
3526.000000	1.723057 
3524.000000	1.718616 
3522.000000	1.715185 
3520.000000	1.705578 
3518.000000	1.701925 
3516.000000	1.709008 
3514.000000	1.712389 
3512.000000	1.712373 
3510.000000	1.710132 
3508.000000	1.708283 
3506.000000	1.709161 
3504.000000	1.709994 
3502.000000	1.710562 
3500.000000	1.713004 
3498.000000	1.709114 
3496.000000	1.701269 
3494.000000	1.704670 
3492.000000	1.709098 
3490.000000	1.705825 
3488.000000	1.704141 
3486.000000	1.710286 
3484.000000	1.716363 
3482.000000	1.719727 
3480.000000	1.718903 
3478.000000	1.716142 
3476.000000	1.717664 
3474.000000	1.715669 
3472.000000	1.715351 
3470.000000	1.717934 
3468.000000	1.715938 
3466.000000	1.719364 
3464.000000	1.721386 
3462.000000	1.717950 
3460.000000	1.710610 
3458.000000	1.704743 
3456.000000	1.707480 
3454.000000	1.710902 
3452.000000	1.712635 
3450.000000	1.712870 
3448.000000	1.708876 
3446.000000	1.704518 
3444.000000	1.701962 
3442.000000	1.704948 
3440.000000	1.710424 
3438.000000	1.715018 
3436.000000	1.715459 
3434.000000	1.715255 
3432.000000	1.716708 
3430.000000	1.715959 
3428.000000	1.716110 
3426.000000	1.716379 
3424.000000	1.711472 
3422.000000	1.712186 
3420.000000	1.714943 
3418.000000	1.718226 
3416.000000	1.715201 
3414.000000	1.707955 
3412.000000	1.708198 
3410.000000	1.708944 
3408.000000	1.709458 
3406.000000	1.706404 
3404.000000	1.701488 
3402.000000	1.703021 
3400.000000	1.700469 
3398.000000	1.692823 
3396.000000	1.692150 
3394.000000	1.702259 
3392.000000	1.708341 
3390.000000	1.710583 
3388.000000	1.706815 
3386.000000	1.694039 
3384.000000	1.694009 
3382.000000	1.700848 
3380.000000	1.699778 
3378.000000	1.695079 
3376.000000	1.696328 
3374.000000	1.697513 
3372.000000	1.698086 
3370.000000	1.704770 
3368.000000	1.707084 
3366.000000	1.708071 
3364.000000	1.706225 
3362.000000	1.706820 
3360.000000	1.713143 
3358.000000	1.712202 
3356.000000	1.704120 
3354.000000	1.701004 
3352.000000	1.702160 
3350.000000	1.701149 
3348.000000	1.703528 
3346.000000	1.703397 
3344.000000	1.701477 
3342.000000	1.701446 
3340.000000	1.700214 
3338.000000	1.700708 
3336.000000	1.707179 
3334.000000	1.713100 
3332.000000	1.706062 
3330.000000	1.698644 
3328.000000	1.697441 
3326.000000	1.699986 
3324.000000	1.697828 
3322.000000	1.695197 
3320.000000	1.695136 
3318.000000	1.692833 
3316.000000	1.696559 
3314.000000	1.698877 
3312.000000	1.694177 
3310.000000	1.688678 
3308.000000	1.689154 
3306.000000	1.690883 
3304.000000	1.692711 
3302.000000	1.691956 
3300.000000	1.689275 
3298.000000	1.692599 
3296.000000	1.692981 
3294.000000	1.688941 
3292.000000	1.683969 
3290.000000	1.680840 
3288.000000	1.683664 
3286.000000	1.686677 
3284.000000	1.684034 
3282.000000	1.683114 
3280.000000	1.684339 
3278.000000	1.679917 
3276.000000	1.684674 
3274.000000	1.691269 
3272.000000	1.688360 
3270.000000	1.687998 
3268.000000	1.685020 
3266.000000	1.683684 
3264.000000	1.686270 
3262.000000	1.683364 
3260.000000	1.676213 
3258.000000	1.672973 
3256.000000	1.679858 
3254.000000	1.686376 
3252.000000	1.683429 
3250.000000	1.678562 
3248.000000	1.680011 
3246.000000	1.679209 
3244.000000	1.673866 
3242.000000	1.672529 
3240.000000	1.674379 
3238.000000	1.677684 
3236.000000	1.679714 
3234.000000	1.674247 
3232.000000	1.675094 
3230.000000	1.679883 
3228.000000	1.678952 
3226.000000	1.674027 
3224.000000	1.670305 
3222.000000	1.670891 
3220.000000	1.671843 
3218.000000	1.670867 
3216.000000	1.674761 
3214.000000	1.675148 
3212.000000	1.667937 
3210.000000	1.665501 
3208.000000	1.670590 
3206.000000	1.669346 
3204.000000	1.670338 
3202.000000	1.675398 
3200.000000	1.673368 
3198.000000	1.669177 
3196.000000	1.666663 
3194.000000	1.667023 
3192.000000	1.666855 
3190.000000	1.665147 
3188.000000	1.666413 
3186.000000	1.667577 
3184.000000	1.669806 
3182.000000	1.668303 
3180.000000	1.665262 
3178.000000	1.665319 
3176.000000	1.665497 
3174.000000	1.663393 
3172.000000	1.664640 
3170.000000	1.670581 
3168.000000	1.669622 
3166.000000	1.661323 
3164.000000	1.658740 
3162.000000	1.658876 
3160.000000	1.660030 
3158.000000	1.661224 
3156.000000	1.664195 
3154.000000	1.663241 
3152.000000	1.659292 
3150.000000	1.663293 
3148.000000	1.665066 
3146.000000	1.661604 
3144.000000	1.656617 
3142.000000	1.656265 
3140.000000	1.663789 
3138.000000	1.664692 
3136.000000	1.655627 
3134.000000	1.650592 
3132.000000	1.652979 
3130.000000	1.655267 
3128.000000	1.654607 
3126.000000	1.655641 
3124.000000	1.659694 
3122.000000	1.662055 
3120.000000	1.657839 
3118.000000	1.652742 
3116.000000	1.654808 
3114.000000	1.658721 
3112.000000	1.656387 
3110.000000	1.653697 
3108.000000	1.654275 
3106.000000	1.654518 
3104.000000	1.651895 
3102.000000	1.649797 
3100.000000	1.650597 
3098.000000	1.650250 
3096.000000	1.651343 
3094.000000	1.652518 
3092.000000	1.652300 
3090.000000	1.649801 
3088.000000	1.651102 
3086.000000	1.655210 
3084.000000	1.655594 
3082.000000	1.649053 
3080.000000	1.647135 
3078.000000	1.650653 
3076.000000	1.651728 
3074.000000	1.648656 
3072.000000	1.645374 
3070.000000	1.645649 
3068.000000	1.643329 
3066.000000	1.643903 
3064.000000	1.652137 
3062.000000	1.656377 
3060.000000	1.652235 
3058.000000	1.643593 
3056.000000	1.636865 
3054.000000	1.639661 
3052.000000	1.643963 
3050.000000	1.642215 
3048.000000	1.642619 
3046.000000	1.649764 
3044.000000	1.650879 
3042.000000	1.645663 
3040.000000	1.644593 
3038.000000	1.646547 
3036.000000	1.647949 
3034.000000	1.643808 
3032.000000	1.640158 
3030.000000	1.641144 
3028.000000	1.643234 
3026.000000	1.643102 
3024.000000	1.644871 
3022.000000	1.648368 
3020.000000	1.647820 
3018.000000	1.644442 
3016.000000	1.648243 
3014.000000	1.652844 
3012.000000	1.648813 
3010.000000	1.644825 
3008.000000	1.644547 
3006.000000	1.643133 
3004.000000	1.642070 
3002.000000	1.648460 
3000.000000	1.649302 
2998.000000	1.643461 
2996.000000	1.637283 
2994.000000	1.637894 
2992.000000	1.644131 
2990.000000	1.643598 
2988.000000	1.639882 
2986.000000	1.638254 
2984.000000	1.639209 
2982.000000	1.642438 
2980.000000	1.645305 
2978.000000	1.646327 
2976.000000	1.643821 
2974.000000	1.645663 
2972.000000	1.646098 
2970.000000	1.640366 
2968.000000	1.639065 
2966.000000	1.641525 
2964.000000	1.646391 
2962.000000	1.650134 
2960.000000	1.648804 
2958.000000	1.649293 
2956.000000	1.649575 
2954.000000	1.650375 
2952.000000	1.651636 
2950.000000	1.651134 
2948.000000	1.649603 
2946.000000	1.652323 
2944.000000	1.658414 
2942.000000	1.660650 
2940.000000	1.655744 
2938.000000	1.647571 
2936.000000	1.645887 
2934.000000	1.654126 
2932.000000	1.660110 
2930.000000	1.662350 
2928.000000	1.655983 
2926.000000	1.649196 
2924.000000	1.651246 
2922.000000	1.654729 
2920.000000	1.658678 
2918.000000	1.659174 
2916.000000	1.654061 
2914.000000	1.648965 
2912.000000	1.646194 
2910.000000	1.648878 
2908.000000	1.650977 
2906.000000	1.645731 
2904.000000	1.639634 
2902.000000	1.633429 
2900.000000	1.633398 
2898.000000	1.638371 
2896.000000	1.640094 
2894.000000	1.638254 
2892.000000	1.637894 
2890.000000	1.640311 
2888.000000	1.642224 
2886.000000	1.638461 
2884.000000	1.635159 
2882.000000	1.638565 
2880.000000	1.639954 
2878.000000	1.638637 
2876.000000	1.640637 
2874.000000	1.641552 
2872.000000	1.638713 
2870.000000	1.635562 
2868.000000	1.635866 
2866.000000	1.639322 
2864.000000	1.642088 
2862.000000	1.643539 
2860.000000	1.647645 
2858.000000	1.646267 
2856.000000	1.641915 
2854.000000	1.644319 
2852.000000	1.644972 
2850.000000	1.642265 
2848.000000	1.637827 
2846.000000	1.633193 
2844.000000	1.633451 
2842.000000	1.636596 
2840.000000	1.635195 
2838.000000	1.627717 
2836.000000	1.622390 
2834.000000	1.624103 
2832.000000	1.625592 
2830.000000	1.618360 
2828.000000	1.618012 
2826.000000	1.624021 
2824.000000	1.625666 
2822.000000	1.625006 
2820.000000	1.621813 
2818.000000	1.619182 
2816.000000	1.617029 
2814.000000	1.615113 
2812.000000	1.617449 
2810.000000	1.619143 
2808.000000	1.618752 
2806.000000	1.616862 
2804.000000	1.617969 
2802.000000	1.621541 
2800.000000	1.623772 
2798.000000	1.622351 
2796.000000	1.617982 
2794.000000	1.614282 
2792.000000	1.613057 
2790.000000	1.616276 
2788.000000	1.618115 
2786.000000	1.616657 
2784.000000	1.613950 
2782.000000	1.612210 
2780.000000	1.616901 
2778.000000	1.621601 
2776.000000	1.618541 
2774.000000	1.612316 
2772.000000	1.613609 
2770.000000	1.618180 
2768.000000	1.618283 
2766.000000	1.616233 
2764.000000	1.617578 
2762.000000	1.617703 
2760.000000	1.618038 
2758.000000	1.621636 
2756.000000	1.619087 
2754.000000	1.611824 
2752.000000	1.609253 
2750.000000	1.612611 
2748.000000	1.614141 
2746.000000	1.609371 
2744.000000	1.607845 
2742.000000	1.611236 
2740.000000	1.611888 
2738.000000	1.609148 
2736.000000	1.610467 
2734.000000	1.614163 
2732.000000	1.615553 
2730.000000	1.616648 
2728.000000	1.614908 
2726.000000	1.610577 
2724.000000	1.612819 
2722.000000	1.614341 
2720.000000	1.610915 
2718.000000	1.610691 
2716.000000	1.610598 
2714.000000	1.609413 
2712.000000	1.611842 
2710.000000	1.611837 
2708.000000	1.611520 
2706.000000	1.610932 
2704.000000	1.608437 
2702.000000	1.606315 
2700.000000	1.604030 
2698.000000	1.604230 
2696.000000	1.606282 
2694.000000	1.608437 
2692.000000	1.609716 
2690.000000	1.610771 
2688.000000	1.611846 
2686.000000	1.612526 
2684.000000	1.613588 
2682.000000	1.609367 
2680.000000	1.606642 
2678.000000	1.606914 
2676.000000	1.605338 
2674.000000	1.607010 
2672.000000	1.607836 
2670.000000	1.606613 
2668.000000	1.604808 
2666.000000	1.603493 
2664.000000	1.603951 
2662.000000	1.602763 
2660.000000	1.603506 
2658.000000	1.604917 
2656.000000	1.603988 
2654.000000	1.604658 
2652.000000	1.609851 
2650.000000	1.611583 
2648.000000	1.608760 
2646.000000	1.608080 
2644.000000	1.610189 
2642.000000	1.612113 
2640.000000	1.608933 
2638.000000	1.603938 
2636.000000	1.604113 
2634.000000	1.605505 
2632.000000	1.605806 
2630.000000	1.604471 
2628.000000	1.599000 
2626.000000	1.593645 
2624.000000	1.594368 
2622.000000	1.595968 
2620.000000	1.599659 
2618.000000	1.602100 
2616.000000	1.600446 
2614.000000	1.597654 
2612.000000	1.596966 
2610.000000	1.599741 
2608.000000	1.604200 
2606.000000	1.602663 
2604.000000	1.599305 
2602.000000	1.599486 
2600.000000	1.600644 
2598.000000	1.599436 
2596.000000	1.596356 
2594.000000	1.596679 
2592.000000	1.597281 
2590.000000	1.597248 
2588.000000	1.602779 
2586.000000	1.604721 
2584.000000	1.600620 
2582.000000	1.597334 
2580.000000	1.596336 
2578.000000	1.595305 
2576.000000	1.597101 
2574.000000	1.598528 
2572.000000	1.593888 
2570.000000	1.592732 
2568.000000	1.596740 
2566.000000	1.595711 
2564.000000	1.590948 
2562.000000	1.585361 
2560.000000	1.588436 
2558.000000	1.595597 
2556.000000	1.594804 
2554.000000	1.595703 
2552.000000	1.597047 
2550.000000	1.593657 
2548.000000	1.593299 
2546.000000	1.594449 
2544.000000	1.595699 
2542.000000	1.596483 
2540.000000	1.593584 
2538.000000	1.593024 
2536.000000	1.594759 
2534.000000	1.590924 
2532.000000	1.586606 
2530.000000	1.588388 
2528.000000	1.590540 
2526.000000	1.590065 
2524.000000	1.587879 
2522.000000	1.584648 
2520.000000	1.586166 
2518.000000	1.589151 
2516.000000	1.588693 
2514.000000	1.589924 
2512.000000	1.591032 
2510.000000	1.588095 
2508.000000	1.586071 
2506.000000	1.585955 
2504.000000	1.589059 
2502.000000	1.589706 
2500.000000	1.588753 
2498.000000	1.587770 
2496.000000	1.589646 
2494.000000	1.587774 
2492.000000	1.584346 
2490.000000	1.584795 
2488.000000	1.586594 
2486.000000	1.587278 
2484.000000	1.588276 
2482.000000	1.591368 
2480.000000	1.590681 
2478.000000	1.585775 
2476.000000	1.582996 
2474.000000	1.582406 
2472.000000	1.581402 
2470.000000	1.579593 
2468.000000	1.578507 
2466.000000	1.578900 
2464.000000	1.579640 
2462.000000	1.580101 
2460.000000	1.580109 
2458.000000	1.579794 
2456.000000	1.577955 
2454.000000	1.579479 
2452.000000	1.582842 
2450.000000	1.580034 
2448.000000	1.579125 
2446.000000	1.580700 
2444.000000	1.581556 
2442.000000	1.580372 
2440.000000	1.577939 
2438.000000	1.575236 
2436.000000	1.571994 
2434.000000	1.574657 
2432.000000	1.578119 
2430.000000	1.576414 
2428.000000	1.578311 
2426.000000	1.578794 
2424.000000	1.577039 
2422.000000	1.577884 
2420.000000	1.575805 
2418.000000	1.574190 
2416.000000	1.574151 
2414.000000	1.571272 
2412.000000	1.569531 
2410.000000	1.570928 
2408.000000	1.573907 
2406.000000	1.571689 
2404.000000	1.569674 
2402.000000	1.570867 
2400.000000	1.570035 
2398.000000	1.569024 
2396.000000	1.570020 
2394.000000	1.571426 
2392.000000	1.573007 
2390.000000	1.572465 
2388.000000	1.570543 
2386.000000	1.570397 
2384.000000	1.570551 
2382.000000	1.568039 
2380.000000	1.565546 
2378.000000	1.562781 
2376.000000	1.559536 
2374.000000	1.561361 
2372.000000	1.563129 
2370.000000	1.564561 
2368.000000	1.568541 
2366.000000	1.570863 
2364.000000	1.568836 
2362.000000	1.568162 
2360.000000	1.573779 
2358.000000	1.580345 
2356.000000	1.576211 
2354.000000	1.570655 
2352.000000	1.573344 
2350.000000	1.573457 
2348.000000	1.566297 
2346.000000	1.561874 
2344.000000	1.566026 
2342.000000	1.568315 
2340.000000	1.576047 
2338.000000	1.576992 
2336.000000	1.574633 
2334.000000	1.575852 
2332.000000	1.579161 
2330.000000	1.589384 
2328.000000	1.591073 
2326.000000	1.586582 
2324.000000	1.585943 
2322.000000	1.587843 
2320.000000	1.589912 
2318.000000	1.587698 
2316.000000	1.581923 
2314.000000	1.580455 
2312.000000	1.585118 
2310.000000	1.587831 
2308.000000	1.587702 
2306.000000	1.589577 
2304.000000	1.590641 
2302.000000	1.590528 
2300.000000	1.592428 
2298.000000	1.594828 
2296.000000	1.600384 
2294.000000	1.605430 
2292.000000	1.603290 
2290.000000	1.601181 
2288.000000	1.608059 
2286.000000	1.615694 
2284.000000	1.617304 
2282.000000	1.621216 
2280.000000	1.624880 
2278.000000	1.628852 
2276.000000	1.639042 
2274.000000	1.647360 
2272.000000	1.652402 
2270.000000	1.659112 
2268.000000	1.668761 
2266.000000	1.679417 
2264.000000	1.683929 
2262.000000	1.687156 
2260.000000	1.693553 
2258.000000	1.699799 
2256.000000	1.702050 
2254.000000	1.700806 
2252.000000	1.703429 
2250.000000	1.710674 
2248.000000	1.711760 
2246.000000	1.711051 
2244.000000	1.714272 
2242.000000	1.712042 
2240.000000	1.705789 
2238.000000	1.700520 
2236.000000	1.697023 
2234.000000	1.694260 
2232.000000	1.695721 
2230.000000	1.693410 
2228.000000	1.695418 
2226.000000	1.699903 
2224.000000	1.696760 
2222.000000	1.694152 
2220.000000	1.694254 
2218.000000	1.694341 
2216.000000	1.695639 
2214.000000	1.699892 
2212.000000	1.706157 
2210.000000	1.710743 
2208.000000	1.715120 
2206.000000	1.718523 
2204.000000	1.723391 
2202.000000	1.727396 
2200.000000	1.726860 
2198.000000	1.728381 
2196.000000	1.728120 
2194.000000	1.719874 
2192.000000	1.715179 
2190.000000	1.723232 
2188.000000	1.729790 
2186.000000	1.724702 
2184.000000	1.716487 
2182.000000	1.708034 
2180.000000	1.701368 
2178.000000	1.698515 
2176.000000	1.695141 
2174.000000	1.694475 
2172.000000	1.694977 
2170.000000	1.696246 
2168.000000	1.700084 
2166.000000	1.699898 
2164.000000	1.700043 
2162.000000	1.698479 
2160.000000	1.700250 
2158.000000	1.703277 
2156.000000	1.703241 
2154.000000	1.709283 
2152.000000	1.722401 
2150.000000	1.739130 
2148.000000	1.747875 
2146.000000	1.752330 
2144.000000	1.763841 
2142.000000	1.769344 
2140.000000	1.766493 
2138.000000	1.766384 
2136.000000	1.765207 
2134.000000	1.758495 
2132.000000	1.756931 
2130.000000	1.760387 
2128.000000	1.763606 
2126.000000	1.772104 
2124.000000	1.778434 
2122.000000	1.794044 
2120.000000	1.818492 
2118.000000	1.836839 
2116.000000	1.845058 
2114.000000	1.845777 
2112.000000	1.838613 
2110.000000	1.826224 
2108.000000	1.812178 
2106.000000	1.805699 
2104.000000	1.796642 
2102.000000	1.781635 
2100.000000	1.770033 
2098.000000	1.760578 
2096.000000	1.763540 
2094.000000	1.779911 
2092.000000	1.796435 
2090.000000	1.805580 
2088.000000	1.804734 
2086.000000	1.792970 
2084.000000	1.780067 
2082.000000	1.768305 
2080.000000	1.753895 
2078.000000	1.740466 
2076.000000	1.724927 
2074.000000	1.705006 
2072.000000	1.680512 
2070.000000	1.651854 
2068.000000	1.626476 
2066.000000	1.604213 
2064.000000	1.583571 
2062.000000	1.567898 
2060.000000	1.556151 
2058.000000	1.546445 
2056.000000	1.539688 
2054.000000	1.533862 
2052.000000	1.528506 
2050.000000	1.525395 
2048.000000	1.526083 
2046.000000	1.524861 
2044.000000	1.523770 
2042.000000	1.524303 
2040.000000	1.521463 
2038.000000	1.516887 
2036.000000	1.512949 
2034.000000	1.512302 
2032.000000	1.513297 
2030.000000	1.511999 
2028.000000	1.510957 
2026.000000	1.510725 
2024.000000	1.510709 
2022.000000	1.508780 
2020.000000	1.505860 
2018.000000	1.506295 
2016.000000	1.507689 
2014.000000	1.506773 
2012.000000	1.506062 
2010.000000	1.503691 
2008.000000	1.501793 
2006.000000	1.502096 
2004.000000	1.503512 
2002.000000	1.503800 
2000.000000	1.502254 
1998.000000	1.499534 
1996.000000	1.498724 
1994.000000	1.497932 
1992.000000	1.500022 
1990.000000	1.502649 
1988.000000	1.501379 
1986.000000	1.500716 
1984.000000	1.499371 
1982.000000	1.495026 
1980.000000	1.490939 
1978.000000	1.492898 
1976.000000	1.496361 
1974.000000	1.494473 
1972.000000	1.494428 
1970.000000	1.492564 
1968.000000	1.485760 
1966.000000	1.487897 
1964.000000	1.493050 
1962.000000	1.493208 
1960.000000	1.489939 
1958.000000	1.487900 
1956.000000	1.486950 
1954.000000	1.485637 
1952.000000	1.485235 
1950.000000	1.482054 
1948.000000	1.482387 
1946.000000	1.483328 
1944.000000	1.480825 
1942.000000	1.480177 
1940.000000	1.481859 
1938.000000	1.481401 
1936.000000	1.479992 
1934.000000	1.479786 
1932.000000	1.480321 
1930.000000	1.480781 
1928.000000	1.481019 
1926.000000	1.480371 
1924.000000	1.480014 
1922.000000	1.479511 
1920.000000	1.475556 
1918.000000	1.479383 
1916.000000	1.484451 
1914.000000	1.481201 
1912.000000	1.481125 
1910.000000	1.480246 
1908.000000	1.477215 
1906.000000	1.474428 
1904.000000	1.473629 
1902.000000	1.471647 
1900.000000	1.472365 
1898.000000	1.471181 
1896.000000	1.466904 
1894.000000	1.467885 
1892.000000	1.468247 
1890.000000	1.469567 
1888.000000	1.474397 
1886.000000	1.473494 
1884.000000	1.470838 
1882.000000	1.470242 
1880.000000	1.470514 
1878.000000	1.469316 
1876.000000	1.466171 
1874.000000	1.466392 
1872.000000	1.463199 
1870.000000	1.457720 
1868.000000	1.464810 
1866.000000	1.469231 
1864.000000	1.463734 
1862.000000	1.457943 
1860.000000	1.456404 
1858.000000	1.457777 
1856.000000	1.461988 
1854.000000	1.462015 
1852.000000	1.459151 
1850.000000	1.454855 
1848.000000	1.452774 
1846.000000	1.447651 
1844.000000	1.455006 
1842.000000	1.464989 
1840.000000	1.458089 
1838.000000	1.454086 
1836.000000	1.453491 
1834.000000	1.451868 
1832.000000	1.443996 
1830.000000	1.447149 
1828.000000	1.457130 
1826.000000	1.451560 
1824.000000	1.451414 
1822.000000	1.451215 
1820.000000	1.446964 
1818.000000	1.448747 
1816.000000	1.452363 
1814.000000	1.448953 
1812.000000	1.443130 
1810.000000	1.444189 
1808.000000	1.446530 
1806.000000	1.446243 
1804.000000	1.441551 
1802.000000	1.436428 
1800.000000	1.440359 
1798.000000	1.439792 
1796.000000	1.434929 
1794.000000	1.425894 
1792.000000	1.433062 
1790.000000	1.444595 
1788.000000	1.436024 
1786.000000	1.429544 
1784.000000	1.431180 
1782.000000	1.428296 
1780.000000	1.427525 
1778.000000	1.427988 
1776.000000	1.421415 
1774.000000	1.414596 
1772.000000	1.424408 
1770.000000	1.430304 
1768.000000	1.425320 
1766.000000	1.425088 
1764.000000	1.414155 
1762.000000	1.413486 
1760.000000	1.422783 
1758.000000	1.417052 
1756.000000	1.418923 
1754.000000	1.415557 
1752.000000	1.405743 
1750.000000	1.412393 
1748.000000	1.417702 
1746.000000	1.417878 
1744.000000	1.412725 
1742.000000	1.406312 
1740.000000	1.405632 
1738.000000	1.413706 
1736.000000	1.394874 
1734.000000	1.401359 
1732.000000	1.424342 
1730.000000	1.415894 
1728.000000	1.412616 
1726.000000	1.408847 
1724.000000	1.408145 
1722.000000	1.405174 
1720.000000	1.389119 
1718.000000	1.390417 
1716.000000	1.410434 
1714.000000	1.409851 
1712.000000	1.403559 
1710.000000	1.397188 
1708.000000	1.388564 
1706.000000	1.388666 
1704.000000	1.390275 
1702.000000	1.366868 
1700.000000	1.382721 
1698.000000	1.393201 
1696.000000	1.386085 
1694.000000	1.397074 
1692.000000	1.384637 
1690.000000	1.376698 
1688.000000	1.371159 
1686.000000	1.353582 
1684.000000	1.368967 
1682.000000	1.389447 
1680.000000	1.377144 
1678.000000	1.366585 
1676.000000	1.358219 
1674.000000	1.369587 
1672.000000	1.359035 
1670.000000	1.352982 
1668.000000	1.369958 
1666.000000	1.363351 
1664.000000	1.348058 
1662.000000	1.356809 
1660.000000	1.361465 
1658.000000	1.351653 
1656.000000	1.329471 
1654.000000	1.317883 
1652.000000	1.369066 
1650.000000	1.358865 
1648.000000	1.331518 
1646.000000	1.348522 
1644.000000	1.359071 
1642.000000	1.346438 
1640.000000	1.337832 
1638.000000	1.325776 
1636.000000	1.330453 
1634.000000	1.354283 
1632.000000	1.348295 
1630.000000	1.338398 
1628.000000	1.338421 
1626.000000	1.337411 
1624.000000	1.332715 
1622.000000	1.340933 
1620.000000	1.333948 
1618.000000	1.320300 
1616.000000	1.334843 
1614.000000	1.337758 
1612.000000	1.325041 
1610.000000	1.322166 
1608.000000	1.323405 
1606.000000	1.322871 
1604.000000	1.320601 
1602.000000	1.318885 
1600.000000	1.315995 
1598.000000	1.310956 
1596.000000	1.307829 
1594.000000	1.308210 
1592.000000	1.308263 
1590.000000	1.306617 
1588.000000	1.305267 
1586.000000	1.302235 
1584.000000	1.300164 
1582.000000	1.298674 
1580.000000	1.296163 
1578.000000	1.284574 
1576.000000	1.292420 
1574.000000	1.302596 
1572.000000	1.286134 
1570.000000	1.279236 
1568.000000	1.290653 
1566.000000	1.288266 
1564.000000	1.284937 
1562.000000	1.267937 
1560.000000	1.252502 
1558.000000	1.297492 
1556.000000	1.298635 
1554.000000	1.285290 
1552.000000	1.280176 
1550.000000	1.275446 
1548.000000	1.272502 
1546.000000	1.264183 
1544.000000	1.262137 
1542.000000	1.259896 
1540.000000	1.272188 
1538.000000	1.287310 
1536.000000	1.267626 
1534.000000	1.256775 
1532.000000	1.268000 
1530.000000	1.259510 
1528.000000	1.250723 
1526.000000	1.253815 
1524.000000	1.249941 
1522.000000	1.244916 
1520.000000	1.259162 
1518.000000	1.250061 
1516.000000	1.250061 
1514.000000	1.249150 
1512.000000	1.240644 
1510.000000	1.231096 
1508.000000	1.224294 
1506.000000	1.253511 
1504.000000	1.257403 
1502.000000	1.239119 
1500.000000	1.229207 
1498.000000	1.228556 
1496.000000	1.238814 
1494.000000	1.240906 
1492.000000	1.229349 
1490.000000	1.230692 
1488.000000	1.238690 
1486.000000	1.238521 
1484.000000	1.233250 
1482.000000	1.228723 
1480.000000	1.227412 
1478.000000	1.222493 
1476.000000	1.221446 
1474.000000	1.219097 
1472.000000	1.230251 
1470.000000	1.234943 
1468.000000	1.225161 
1466.000000	1.217813 
1464.000000	1.223466 
1462.000000	1.221753 
1460.000000	1.206462 
1458.000000	1.203032 
1456.000000	1.225899 
1454.000000	1.225735 
1452.000000	1.215734 
1450.000000	1.211496 
1448.000000	1.209640 
1446.000000	1.209427 
1444.000000	1.205263 
1442.000000	1.201316 
1440.000000	1.193170 
1438.000000	1.183934 
1436.000000	1.193495 
1434.000000	1.194817 
1432.000000	1.184418 
1430.000000	1.182778 
1428.000000	1.185134 
1426.000000	1.179183 
1424.000000	1.176441 
1422.000000	1.170815 
1420.000000	1.163563 
1418.000000	1.172047 
1416.000000	1.170753 
1414.000000	1.164571 
1412.000000	1.160209 
1410.000000	1.157594 
1408.000000	1.154856 
1406.000000	1.152745 
1404.000000	1.153647 
1402.000000	1.149693 
1400.000000	1.144052 
1398.000000	1.144390 
1396.000000	1.141716 
1394.000000	1.143101 
1392.000000	1.142009 
1390.000000	1.134070 
1388.000000	1.131686 
1386.000000	1.134885 
1384.000000	1.132498 
1382.000000	1.126814 
1380.000000	1.122844 
1378.000000	1.120936 
1376.000000	1.117535 
1374.000000	1.117835 
1372.000000	1.117313 
1370.000000	1.113216 
1368.000000	1.111279 
1366.000000	1.107408 
1364.000000	1.101975 
1362.000000	1.101532 
1360.000000	1.100979 
1358.000000	1.098616 
1356.000000	1.094515 
1354.000000	1.091304 
1352.000000	1.088707 
1350.000000	1.086005 
1348.000000	1.083391 
1346.000000	1.081595 
1344.000000	1.078905 
1342.000000	1.074912 
1340.000000	1.072367 
1338.000000	1.070405 
1336.000000	1.067090 
1334.000000	1.065530 
1332.000000	1.065057 
1330.000000	1.063818 
1328.000000	1.062553 
1326.000000	1.060728 
1324.000000	1.057887 
1322.000000	1.054945 
1320.000000	1.052789 
1318.000000	1.051449 
1316.000000	1.049023 
1314.000000	1.046065 
1312.000000	1.043797 
1310.000000	1.040883 
1308.000000	1.039034 
1306.000000	1.038403 
1304.000000	1.036942 
1302.000000	1.034295 
1300.000000	1.031408 
1298.000000	1.028817 
1296.000000	1.026444 
1294.000000	1.023379 
1292.000000	1.020827 
1290.000000	1.019135 
1288.000000	1.016631 
1286.000000	1.013746 
1284.000000	1.010843 
1282.000000	1.008679 
1280.000000	1.007413 
1278.000000	1.005102 
1276.000000	1.001726 
1274.000000	0.997821 
1272.000000	0.995103 
1270.000000	0.993414 
1268.000000	0.991566 
1266.000000	0.988918 
1264.000000	0.986344 
1262.000000	0.985066 
1260.000000	0.983168 
1258.000000	0.980926 
1256.000000	0.978494 
1254.000000	0.975703 
1252.000000	0.973586 
1250.000000	0.972330 
1248.000000	0.972255 
1246.000000	0.971303 
1244.000000	0.969102 
1242.000000	0.967551 
1240.000000	0.966532 
1238.000000	0.966976 
1236.000000	0.967128 
1234.000000	0.966289 
1232.000000	0.967047 
1230.000000	0.969127 
1228.000000	0.970277 
1226.000000	0.971403 
1224.000000	0.972742 
1222.000000	0.974508 
1220.000000	0.977202 
1218.000000	0.980628 
1216.000000	0.985486 
1214.000000	0.991756 
1212.000000	0.999043 
1210.000000	1.006442 
1208.000000	1.013894 
1206.000000	1.021662 
1204.000000	1.028826 
1202.000000	1.037281 
1200.000000	1.048023 
1198.000000	1.059312 
1196.000000	1.071382 
1194.000000	1.082228 
1192.000000	1.091912 
1190.000000	1.102981 
1188.000000	1.114222 
1186.000000	1.125327 
1184.000000	1.137715 
1182.000000	1.150169 
1180.000000	1.162272 
1178.000000	1.172452 
1176.000000	1.181837 
1174.000000	1.192777 
1172.000000	1.203990 
1170.000000	1.215277 
1168.000000	1.226744 
1166.000000	1.237667 
1164.000000	1.246473 
1162.000000	1.253589 
1160.000000	1.263970 
1158.000000	1.275514 
1156.000000	1.282230 
1154.000000	1.288994 
1152.000000	1.297857 
1150.000000	1.306202 
1148.000000	1.310867 
1146.000000	1.317304 
1144.000000	1.327840 
1142.000000	1.335672 
1140.000000	1.340318 
1138.000000	1.347146 
1136.000000	1.353808 
1134.000000	1.358175 
1132.000000	1.361532 
1130.000000	1.367218 
1128.000000	1.373800 
1126.000000	1.379291 
1124.000000	1.382754 
1122.000000	1.387070 
1120.000000	1.391870 
1118.000000	1.397120 
1116.000000	1.402336 
1114.000000	1.405682 
1112.000000	1.410711 
1110.000000	1.413948 
1108.000000	1.415869 
1106.000000	1.420119 
1104.000000	1.425521 
1102.000000	1.433846 
1100.000000	1.438708 
1098.000000	1.439026 
1096.000000	1.440536 
1094.000000	1.447002 
1092.000000	1.451297 
1090.000000	1.452818 
1088.000000	1.457085 
1086.000000	1.464823 
1084.000000	1.472626 
1082.000000	1.475538 
1080.000000	1.474175 
1078.000000	1.477122 
1076.000000	1.482396 
1074.000000	1.488997 
1072.000000	1.492738 
1070.000000	1.496011 
1068.000000	1.501534 
1066.000000	1.502300 
1064.000000	1.500163 
1062.000000	1.499253 
1060.000000	1.497811 
1058.000000	1.499060 
1056.000000	1.502935 
1054.000000	1.499561 
1052.000000	1.488882 
1050.000000	1.483381 
1048.000000	1.481216 
1046.000000	1.474641 
1044.000000	1.463797 
1042.000000	1.453132 
1040.000000	1.443708 
1038.000000	1.430728 
1036.000000	1.414657 
1034.000000	1.397989 
1032.000000	1.383404 
1030.000000	1.365424 
1028.000000	1.344987 
1026.000000	1.325483 
1024.000000	1.304135 
1022.000000	1.282837 
1020.000000	1.259361 
1018.000000	1.234909 
1016.000000	1.208842 
1014.000000	1.181835 
1012.000000	1.155171 
1010.000000	1.126595 
1008.000000	1.097806 
1006.000000	1.071468 
1004.000000	1.046539 
1002.000000	1.022062 
1000.000000	0.998285 
998.000000	 0.976811 
996.000000	 0.957882 
994.000000	 0.941674 
992.000000	 0.930331 
990.000000	 0.926238 
988.000000	 0.928320 
986.000000	 0.935250 
984.000000	 0.945140 
982.000000	 0.955127 
980.000000	 0.960511 
978.000000	 0.959198 
976.000000	 0.949586 
974.000000	 0.932650 
972.000000	 0.912692 
970.000000	 0.890611 
968.000000	 0.867979 
966.000000	 0.849551 
964.000000	 0.836052 
962.000000	 0.824983 
960.000000	 0.815136 
958.000000	 0.807150 
956.000000	 0.802079 
954.000000	 0.799935 
952.000000	 0.801852 
950.000000	 0.807777 
948.000000	 0.815335 
946.000000	 0.823702 
944.000000	 0.833392 
942.000000	 0.842333 
940.000000	 0.847560 
938.000000	 0.847991 
936.000000	 0.845371 
934.000000	 0.841639 
932.000000	 0.835606 
930.000000	 0.828474 
928.000000	 0.821948 
926.000000	 0.815604 
924.000000	 0.809148 
922.000000	 0.804884 
920.000000	 0.804373 
918.000000	 0.804266 
916.000000	 0.803639 
914.000000	 0.801939 
912.000000	 0.798273 
910.000000	 0.795067 
908.000000	 0.792853 
906.000000	 0.789510 
904.000000	 0.782971 
902.000000	 0.776225 
900.000000	 0.771289 
898.000000	 0.767879 
896.000000	 0.766326 
894.000000	 0.770341 
892.000000	 0.781231 
890.000000	 0.796586 
888.000000	 0.813679 
886.000000	 0.831452 
884.000000	 0.848738 
882.000000	 0.866627 
880.000000	 0.882459 
878.000000	 0.894110 
876.000000	 0.903604 
874.000000	 0.908014 
872.000000	 0.911898 
870.000000	 0.915335 
868.000000	 0.914640 
866.000000	 0.912629 
864.000000	 0.910446 
862.000000	 0.906372 
860.000000	 0.902152 
858.000000	 0.898315 
856.000000	 0.893778 
854.000000	 0.889472 
852.000000	 0.885378 
850.000000	 0.883209 
848.000000	 0.881684 
846.000000	 0.880535 
844.000000	 0.879227 
842.000000	 0.877048 
840.000000	 0.873360 
838.000000	 0.866785 
836.000000	 0.858209 
834.000000	 0.847181 
832.000000	 0.832024 
830.000000	 0.813280 
828.000000	 0.791109 
826.000000	 0.767181 
824.000000	 0.743990 
822.000000	 0.721948 
820.000000	 0.700489 
818.000000	 0.681876 
816.000000	 0.666409 
814.000000	 0.651987 
812.000000	 0.638333 
810.000000	 0.626998 
808.000000	 0.618406 
806.000000	 0.610904 
804.000000	 0.602840 
802.000000	 0.594766 
800.000000	 0.586620 
798.000000	 0.578648 
796.000000	 0.570500 
794.000000	 0.561091 
792.000000	 0.552015 
790.000000	 0.543109 
788.000000	 0.534046 
786.000000	 0.525586 
784.000000	 0.517631 
782.000000	 0.509721 
780.000000	 0.502153 
778.000000	 0.495244 
776.000000	 0.488746 
774.000000	 0.482667 
772.000000	 0.476825 
770.000000	 0.471045 
768.000000	 0.466303 
766.000000	 0.462350 
764.000000	 0.458290 
762.000000	 0.454447 
760.000000	 0.451435 
758.000000	 0.449644 
756.000000	 0.448686 
754.000000	 0.447700 
752.000000	 0.446372 
750.000000	 0.445558 
748.000000	 0.446441 
746.000000	 0.446851 
744.000000	 0.446327 
742.000000	 0.446667 
740.000000	 0.447823 
738.000000	 0.449059 
736.000000	 0.450042 
734.000000	 0.451197 
732.000000	 0.452782 
730.000000	 0.453987 
728.000000	 0.454962 
726.000000	 0.456442 
724.000000	 0.458374 
722.000000	 0.461186 
720.000000	 0.464503 
718.000000	 0.467475 
716.000000	 0.470622 
714.000000	 0.474271 
712.000000	 0.477183 
710.000000	 0.480017 
708.000000	 0.482045 
706.000000	 0.481726 
704.000000	 0.478937 
702.000000	 0.474946 
700.000000	 0.470180 
698.000000	 0.466270 
696.000000	 0.463251 
694.000000	 0.460685 
692.000000	 0.459285 
690.000000	 0.459418 
688.000000	 0.461055 
686.000000	 0.464255 
684.000000	 0.468197 
682.000000	 0.472103 
680.000000	 0.477143 
678.000000	 0.484065 
676.000000	 0.492104 
674.000000	 0.499925 
672.000000	 0.505891 
670.000000	 0.508922 
668.000000	 0.511381 
666.000000	 0.506871 
664.000000	 0.497018 
662.000000	 0.487537 
660.000000	 0.479640 
658.000000	 0.473293 
656.000000	 0.467945 
654.000000	 0.464031 
652.000000	 0.461812 
650.000000	 0.463100 
648.000000	 0.466776 
646.000000	 0.471378 
644.000000	 0.476654 
642.000000	 0.482993 
640.000000	 0.490038 
638.000000	 0.498358 
636.000000	 0.507133 
634.000000	 0.516250 
632.000000	 0.525471 
630.000000	 0.530374 
628.000000	 0.528084 
626.000000	 0.516993 
624.000000	 0.496112 
622.000000	 0.467048 
620.000000	 0.432559 
618.000000	 0.398757 
616.000000	 0.366927 
614.000000	 0.337223 
612.000000	 0.312062 
610.000000	 0.291751 
608.000000	 0.274054 
606.000000	 0.257305 
604.000000	 0.242861 
602.000000	 0.230752 
600.000000	 0.221142 
598.000000	 0.213631 
596.000000	 0.206028 
594.000000	 0.197884 
592.000000	 0.190844 
590.000000	 0.184338 
588.000000	 0.178696 
586.000000	 0.173401 
584.000000	 0.167720 
582.000000	 0.162160 
580.000000	 0.157645 
578.000000	 0.153140 
576.000000	 0.147780 
574.000000	 0.141830 
572.000000	 0.136597 
570.000000	 0.131636 
568.000000	 0.126111 
566.000000	 0.121729 
564.000000	 0.119100 
562.000000	 0.116138 
560.000000	 0.112271 
558.000000	 0.108668 
556.000000	 0.106230 
554.000000	 0.104986 
552.000000	 0.103000 
550.000000	 0.101051 
548.000000	 0.099436 
546.000000	 0.097082 
544.000000	 0.094738 
542.000000	 0.093493 
540.000000	 0.092447 
538.000000	 0.090917 
536.000000	 0.089478 
534.000000	 0.088808 
532.000000	 0.088490 
530.000000	 0.087805 
528.000000	 0.086354 
526.000000	 0.085573 
524.000000	 0.085783 
522.000000	 0.085634 
520.000000	 0.085953 
518.000000	 0.087024 
516.000000	 0.087976 
514.000000	 0.089256 
512.000000	 0.090581 
510.000000	 0.090940 
508.000000	 0.091025 
506.000000	 0.091071 
504.000000	 0.090232 
502.000000	 0.089859 
500.000000	 0.090557 
498.000000	 0.091105 
496.000000	 0.091960 
494.000000	 0.092804 
492.000000	 0.094233 
490.000000	 0.096680 
488.000000	 0.099712 
486.000000	 0.102300 
484.000000	 0.105155 
482.000000	 0.108450 
480.000000	 0.111341 
478.000000	 0.113824 
476.000000	 0.116750 
474.000000	 0.118633 
472.000000	 0.120450 
470.000000	 0.124204 
468.000000	 0.126839 
466.000000	 0.128116 
464.000000	 0.129443 
462.000000	 0.130167 
460.000000	 0.130558 
458.000000	 0.129449 
456.000000	 0.129832 
454.000000	 0.132419 
452.000000	 0.134484 
450.000000	 0.134097 

