PE IR       SUBTECH     SPECTRUM    ASCII       PEDS        1.60        
  -1
1911B12.ASC
07/11/23
21:03:27.00
07/11/23
18:12:14.00
koro/arcerd
24h-100c
450.000000
16









1004,02.19S
DTGS
MIR
KBR
52208
0.300000

4.000000
STRONG
RATIO
MAGNITUDE


DOUBLE SIDED
16
BIDIRECTIONAL
2




#HDR
-1
-1
#GR
CM-1
A
0.00000011920928955078
0.0
4400.000000
-2.000000
1976
8
2.046030
0.157846
#DATA
4400.000000	1.667500 
4398.000000	1.673305 
4396.000000	1.677708 
4394.000000	1.683964 
4392.000000	1.687352 
4390.000000	1.684915 
4388.000000	1.674110 
4386.000000	1.668747 
4384.000000	1.673768 
4382.000000	1.677758 
4380.000000	1.676517 
4378.000000	1.675687 
4376.000000	1.677230 
4374.000000	1.673056 
4372.000000	1.670474 
4370.000000	1.669994 
4368.000000	1.665703 
4366.000000	1.664558 
4364.000000	1.668318 
4362.000000	1.671362 
4360.000000	1.669472 
4358.000000	1.671527 
4356.000000	1.673427 
4354.000000	1.675707 
4352.000000	1.683454 
4350.000000	1.683109 
4348.000000	1.674311 
4346.000000	1.669356 
4344.000000	1.665760 
4342.000000	1.659627 
4340.000000	1.664295 
4338.000000	1.676842 
4336.000000	1.683554 
4334.000000	1.683065 
4332.000000	1.681426 
4330.000000	1.681108 
4328.000000	1.677767 
4326.000000	1.672310 
4324.000000	1.670775 
4322.000000	1.673319 
4320.000000	1.671042 
4318.000000	1.671386 
4316.000000	1.673915 
4314.000000	1.671299 
4312.000000	1.671484 
4310.000000	1.665209 
4308.000000	1.658471 
4306.000000	1.663947 
4304.000000	1.676507 
4302.000000	1.682312 
4300.000000	1.678463 
4298.000000	1.677703 
4296.000000	1.675030 
4294.000000	1.674878 
4292.000000	1.682366 
4290.000000	1.680071 
4288.000000	1.669336 
4286.000000	1.668515 
4284.000000	1.676075 
4282.000000	1.682680 
4280.000000	1.678582 
4278.000000	1.666432 
4276.000000	1.665799 
4274.000000	1.676660 
4272.000000	1.675687 
4270.000000	1.667842 
4268.000000	1.669003 
4266.000000	1.667288 
4264.000000	1.665454 
4262.000000	1.673925 
4260.000000	1.676055 
4258.000000	1.668819 
4256.000000	1.670959 
4254.000000	1.673900 
4252.000000	1.666509 
4250.000000	1.664209 
4248.000000	1.676556 
4246.000000	1.683884 
4244.000000	1.670518 
4242.000000	1.667240 
4240.000000	1.674785 
4238.000000	1.681670 
4236.000000	1.675574 
4234.000000	1.667500 
4232.000000	1.672515 
4230.000000	1.673456 
4228.000000	1.674595 
4226.000000	1.674379 
4224.000000	1.676788 
4222.000000	1.677162 
4220.000000	1.670290 
4218.000000	1.667842 
4216.000000	1.674149 
4214.000000	1.677275 
4212.000000	1.676876 
4210.000000	1.673993 
4208.000000	1.667784 
4206.000000	1.670324 
4204.000000	1.670571 
4202.000000	1.663136 
4200.000000	1.662145 
4198.000000	1.672189 
4196.000000	1.672934 
4194.000000	1.663159 
4192.000000	1.669278 
4190.000000	1.675663 
4188.000000	1.673305 
4186.000000	1.670275 
4184.000000	1.669090 
4182.000000	1.669380 
4180.000000	1.664123 
4178.000000	1.666913 
4176.000000	1.675898 
4174.000000	1.679486 
4172.000000	1.678335 
4170.000000	1.671343 
4168.000000	1.663074 
4166.000000	1.658749 
4164.000000	1.663069 
4162.000000	1.667917 
4160.000000	1.662969 
4158.000000	1.660783 
4156.000000	1.662274 
4154.000000	1.662745 
4152.000000	1.671042 
4150.000000	1.674805 
4148.000000	1.670222 
4146.000000	1.668457 
4144.000000	1.664515 
4142.000000	1.664372 
4140.000000	1.665564 
4138.000000	1.661974 
4136.000000	1.660030 
4134.000000	1.665904 
4132.000000	1.671338 
4130.000000	1.667033 
4128.000000	1.666442 
4126.000000	1.667649 
4124.000000	1.659661 
4122.000000	1.661922 
4120.000000	1.667427 
4118.000000	1.661589 
4116.000000	1.659538 
4114.000000	1.666399 
4112.000000	1.673392 
4110.000000	1.668322 
4108.000000	1.660115 
4106.000000	1.661276 
4104.000000	1.665271 
4102.000000	1.667774 
4100.000000	1.669390 
4098.000000	1.671566 
4096.000000	1.670741 
4094.000000	1.665895 
4092.000000	1.659316 
4090.000000	1.663002 
4088.000000	1.666178 
4086.000000	1.660792 
4084.000000	1.665746 
4082.000000	1.675756 
4080.000000	1.675496 
4078.000000	1.668207 
4076.000000	1.665113 
4074.000000	1.662112 
4072.000000	1.655154 
4070.000000	1.656424 
4068.000000	1.662378 
4066.000000	1.656054 
4064.000000	1.652881 
4062.000000	1.662526 
4060.000000	1.666970 
4058.000000	1.667110 
4056.000000	1.663932 
4054.000000	1.664047 
4052.000000	1.671396 
4050.000000	1.670319 
4048.000000	1.662207 
4046.000000	1.659179 
4044.000000	1.663341 
4042.000000	1.670183 
4040.000000	1.671838 
4038.000000	1.666918 
4036.000000	1.665362 
4034.000000	1.667990 
4032.000000	1.666769 
4030.000000	1.668708 
4028.000000	1.670828 
4026.000000	1.669365 
4024.000000	1.668477 
4022.000000	1.663422 
4020.000000	1.657256 
4018.000000	1.660214 
4016.000000	1.665003 
4014.000000	1.664946 
4012.000000	1.658197 
4010.000000	1.653100 
4008.000000	1.654944 
4006.000000	1.658815 
4004.000000	1.660243 
4002.000000	1.660498 
4000.000000	1.668520 
3998.000000	1.671158 
3996.000000	1.662750 
3994.000000	1.662621 
3992.000000	1.663617 
3990.000000	1.661513 
3988.000000	1.668231 
3986.000000	1.670406 
3984.000000	1.667461 
3982.000000	1.669685 
3980.000000	1.664243 
3978.000000	1.661276 
3976.000000	1.659353 
3974.000000	1.653659 
3972.000000	1.663436 
3970.000000	1.670784 
3968.000000	1.671012 
3966.000000	1.672072 
3964.000000	1.667557 
3962.000000	1.664821 
3960.000000	1.665703 
3958.000000	1.667837 
3956.000000	1.670067 
3954.000000	1.664358 
3952.000000	1.663264 
3950.000000	1.665856 
3948.000000	1.662112 
3946.000000	1.657086 
3944.000000	1.661494 
3942.000000	1.666860 
3940.000000	1.662383 
3938.000000	1.658829 
3936.000000	1.662355 
3934.000000	1.662731 
3932.000000	1.663317 
3930.000000	1.667211 
3928.000000	1.662107 
3926.000000	1.657627 
3924.000000	1.659802 
3922.000000	1.657265 
3920.000000	1.652504 
3918.000000	1.658603 
3916.000000	1.671843 
3914.000000	1.677644 
3912.000000	1.675628 
3910.000000	1.669617 
3908.000000	1.661542 
3906.000000	1.664678 
3904.000000	1.672768 
3902.000000	1.669090 
3900.000000	1.669946 
3898.000000	1.676345 
3896.000000	1.675805 
3894.000000	1.669206 
3892.000000	1.666355 
3890.000000	1.668824 
3888.000000	1.662764 
3886.000000	1.658994 
3884.000000	1.669796 
3882.000000	1.669777 
3880.000000	1.669990 
3878.000000	1.674893 
3876.000000	1.671975 
3874.000000	1.666379 
3872.000000	1.657802 
3870.000000	1.663241 
3868.000000	1.676409 
3866.000000	1.671916 
3864.000000	1.666720 
3862.000000	1.670217 
3860.000000	1.668178 
3858.000000	1.662569 
3856.000000	1.658688 
3854.000000	1.662840 
3852.000000	1.676812 
3850.000000	1.676960 
3848.000000	1.670775 
3846.000000	1.664620 
3844.000000	1.663002 
3842.000000	1.663374 
3840.000000	1.662554 
3838.000000	1.671994 
3836.000000	1.679724 
3834.000000	1.677152 
3832.000000	1.679333 
3830.000000	1.674771 
3828.000000	1.663274 
3826.000000	1.662921 
3824.000000	1.665425 
3822.000000	1.669917 
3820.000000	1.676522 
3818.000000	1.668023 
3816.000000	1.666303 
3814.000000	1.678977 
3812.000000	1.681068 
3810.000000	1.667866 
3808.000000	1.659316 
3806.000000	1.664085 
3804.000000	1.660693 
3802.000000	1.662831 
3800.000000	1.675982 
3798.000000	1.676409 
3796.000000	1.678868 
3794.000000	1.682098 
3792.000000	1.681222 
3790.000000	1.678157 
3788.000000	1.673636 
3786.000000	1.673324 
3784.000000	1.672145 
3782.000000	1.668761 
3780.000000	1.673739 
3778.000000	1.683079 
3776.000000	1.687872 
3774.000000	1.681545 
3772.000000	1.666254 
3770.000000	1.667495 
3768.000000	1.674511 
3766.000000	1.667341 
3764.000000	1.669956 
3762.000000	1.672213 
3760.000000	1.672841 
3758.000000	1.684249 
3756.000000	1.694449 
3754.000000	1.688320 
3752.000000	1.684764 
3750.000000	1.706773 
3748.000000	1.724043 
3746.000000	1.716347 
3744.000000	1.716379 
3742.000000	1.732996 
3740.000000	1.729084 
3738.000000	1.722554 
3736.000000	1.726204 
3734.000000	1.728968 
3732.000000	1.731822 
3730.000000	1.731270 
3728.000000	1.720580 
3726.000000	1.711174 
3724.000000	1.714589 
3722.000000	1.723621 
3720.000000	1.738517 
3718.000000	1.741053 
3716.000000	1.733977 
3714.000000	1.730947 
3712.000000	1.734336 
3710.000000	1.743317 
3708.000000	1.745726 
3706.000000	1.742201 
3704.000000	1.749210 
3702.000000	1.768931 
3700.000000	1.774388 
3698.000000	1.760894 
3696.000000	1.750414 
3694.000000	1.752464 
3692.000000	1.755738 
3690.000000	1.764587 
3688.000000	1.782187 
3686.000000	1.789954 
3684.000000	1.783587 
3682.000000	1.776697 
3680.000000	1.769381 
3678.000000	1.764310 
3676.000000	1.770905 
3674.000000	1.791206 
3672.000000	1.791507 
3670.000000	1.800770 
3668.000000	1.817866 
3666.000000	1.810536 
3664.000000	1.802330 
3662.000000	1.800528 
3660.000000	1.803837 
3658.000000	1.803442 
3656.000000	1.804872 
3654.000000	1.808852 
3652.000000	1.804608 
3650.000000	1.809666 
3648.000000	1.833064 
3646.000000	1.844508 
3644.000000	1.837594 
3642.000000	1.820982 
3640.000000	1.808845 
3638.000000	1.802830 
3636.000000	1.797713 
3634.000000	1.803060 
3632.000000	1.807880 
3630.000000	1.804153 
3628.000000	1.825240 
3626.000000	1.838749 
3624.000000	1.819537 
3622.000000	1.800509 
3620.000000	1.811722 
3618.000000	1.829575 
3616.000000	1.824832 
3614.000000	1.822005 
3612.000000	1.826919 
3610.000000	1.822961 
3608.000000	1.820907 
3606.000000	1.819175 
3604.000000	1.821421 
3602.000000	1.834605 
3600.000000	1.837195 
3598.000000	1.831439 
3596.000000	1.825551 
3594.000000	1.819359 
3592.000000	1.827907 
3590.000000	1.838342 
3588.000000	1.838228 
3586.000000	1.841263 
3584.000000	1.838178 
3582.000000	1.831622 
3580.000000	1.831607 
3578.000000	1.830912 
3576.000000	1.837672 
3574.000000	1.838406 
3572.000000	1.827211 
3570.000000	1.825593 
3568.000000	1.831650 
3566.000000	1.832944 
3564.000000	1.833001 
3562.000000	1.831256 
3560.000000	1.832585 
3558.000000	1.831769 
3556.000000	1.834612 
3554.000000	1.833925 
3552.000000	1.828408 
3550.000000	1.831741 
3548.000000	1.833706 
3546.000000	1.843113 
3544.000000	1.847282 
3542.000000	1.837836 
3540.000000	1.830786 
3538.000000	1.833382 
3536.000000	1.838249 
3534.000000	1.832339 
3532.000000	1.830660 
3530.000000	1.828443 
3528.000000	1.824051 
3526.000000	1.833269 
3524.000000	1.841953 
3522.000000	1.844291 
3520.000000	1.840259 
3518.000000	1.836150 
3516.000000	1.839292 
3514.000000	1.843330 
3512.000000	1.841817 
3510.000000	1.842141 
3508.000000	1.848609 
3506.000000	1.858730 
3504.000000	1.863210 
3502.000000	1.861446 
3500.000000	1.848266 
3498.000000	1.846096 
3496.000000	1.854896 
3494.000000	1.856128 
3492.000000	1.853504 
3490.000000	1.845109 
3488.000000	1.837793 
3486.000000	1.832747 
3484.000000	1.836797 
3482.000000	1.846801 
3480.000000	1.847223 
3478.000000	1.843294 
3476.000000	1.850639 
3474.000000	1.857833 
3472.000000	1.855734 
3470.000000	1.850434 
3468.000000	1.849789 
3466.000000	1.854555 
3464.000000	1.862682 
3462.000000	1.856946 
3460.000000	1.852707 
3458.000000	1.860912 
3456.000000	1.864582 
3454.000000	1.854333 
3452.000000	1.844986 
3450.000000	1.853933 
3448.000000	1.864847 
3446.000000	1.857155 
3444.000000	1.846670 
3442.000000	1.843128 
3440.000000	1.844298 
3438.000000	1.851367 
3436.000000	1.859636 
3434.000000	1.864695 
3432.000000	1.863203 
3430.000000	1.852677 
3428.000000	1.844769 
3426.000000	1.855074 
3424.000000	1.858506 
3422.000000	1.856582 
3420.000000	1.856649 
3418.000000	1.855051 
3416.000000	1.855407 
3414.000000	1.854681 
3412.000000	1.847114 
3410.000000	1.851396 
3408.000000	1.855868 
3406.000000	1.854118 
3404.000000	1.863475 
3402.000000	1.868916 
3400.000000	1.862757 
3398.000000	1.846467 
3396.000000	1.838849 
3394.000000	1.840689 
3392.000000	1.836413 
3390.000000	1.840861 
3388.000000	1.846547 
3386.000000	1.845276 
3384.000000	1.838992 
3382.000000	1.826863 
3380.000000	1.829778 
3378.000000	1.841134 
3376.000000	1.839750 
3374.000000	1.831643 
3372.000000	1.830856 
3370.000000	1.840546 
3368.000000	1.838435 
3366.000000	1.831088 
3364.000000	1.832093 
3362.000000	1.829708 
3360.000000	1.827141 
3358.000000	1.825565 
3356.000000	1.824935 
3354.000000	1.824714 
3352.000000	1.830044 
3350.000000	1.838036 
3348.000000	1.836228 
3346.000000	1.827649 
3344.000000	1.821730 
3342.000000	1.822617 
3340.000000	1.826460 
3338.000000	1.824804 
3336.000000	1.822410 
3334.000000	1.824852 
3332.000000	1.825094 
3330.000000	1.821888 
3328.000000	1.820386 
3326.000000	1.818861 
3324.000000	1.821565 
3322.000000	1.821112 
3320.000000	1.816032 
3318.000000	1.814435 
3316.000000	1.815944 
3314.000000	1.813134 
3312.000000	1.812320 
3310.000000	1.809419 
3308.000000	1.808639 
3306.000000	1.809486 
3304.000000	1.805573 
3302.000000	1.798382 
3300.000000	1.795729 
3298.000000	1.804701 
3296.000000	1.811661 
3294.000000	1.803316 
3292.000000	1.794967 
3290.000000	1.798578 
3288.000000	1.801891 
3286.000000	1.795005 
3284.000000	1.792103 
3282.000000	1.793645 
3280.000000	1.787751 
3278.000000	1.780697 
3276.000000	1.771724 
3274.000000	1.777044 
3272.000000	1.786933 
3270.000000	1.789890 
3268.000000	1.794760 
3266.000000	1.796402 
3264.000000	1.783329 
3262.000000	1.781930 
3260.000000	1.784954 
3258.000000	1.782293 
3256.000000	1.783053 
3254.000000	1.789756 
3252.000000	1.790592 
3250.000000	1.787554 
3248.000000	1.783555 
3246.000000	1.777565 
3244.000000	1.779324 
3242.000000	1.776376 
3240.000000	1.770758 
3238.000000	1.774561 
3236.000000	1.773638 
3234.000000	1.771877 
3232.000000	1.774142 
3230.000000	1.774795 
3228.000000	1.771926 
3226.000000	1.771192 
3224.000000	1.770527 
3222.000000	1.766517 
3220.000000	1.765563 
3218.000000	1.775134 
3216.000000	1.778782 
3214.000000	1.770246 
3212.000000	1.767431 
3210.000000	1.765237 
3208.000000	1.765062 
3206.000000	1.764978 
3204.000000	1.766602 
3202.000000	1.765135 
3200.000000	1.763252 
3198.000000	1.760936 
3196.000000	1.757700 
3194.000000	1.758477 
3192.000000	1.755007 
3190.000000	1.752330 
3188.000000	1.754901 
3186.000000	1.760256 
3184.000000	1.762790 
3182.000000	1.755832 
3180.000000	1.747360 
3178.000000	1.749291 
3176.000000	1.756647 
3174.000000	1.750636 
3172.000000	1.742687 
3170.000000	1.743690 
3168.000000	1.747742 
3166.000000	1.742447 
3164.000000	1.738188 
3162.000000	1.742498 
3160.000000	1.740329 
3158.000000	1.736058 
3156.000000	1.735106 
3154.000000	1.734370 
3152.000000	1.736272 
3150.000000	1.735945 
3148.000000	1.737543 
3146.000000	1.736187 
3144.000000	1.732828 
3142.000000	1.733685 
3140.000000	1.731566 
3138.000000	1.726116 
3136.000000	1.727584 
3134.000000	1.730034 
3132.000000	1.730429 
3130.000000	1.730824 
3128.000000	1.727700 
3126.000000	1.720809 
3124.000000	1.723167 
3122.000000	1.727578 
3120.000000	1.726706 
3118.000000	1.726336 
3116.000000	1.727097 
3114.000000	1.723802 
3112.000000	1.721534 
3110.000000	1.723901 
3108.000000	1.719771 
3106.000000	1.716401 
3104.000000	1.721435 
3102.000000	1.725273 
3100.000000	1.722216 
3098.000000	1.718074 
3096.000000	1.713833 
3094.000000	1.710020 
3092.000000	1.707812 
3090.000000	1.709304 
3088.000000	1.712128 
3086.000000	1.710594 
3084.000000	1.707437 
3082.000000	1.708812 
3080.000000	1.713458 
3078.000000	1.710658 
3076.000000	1.702040 
3074.000000	1.698117 
3072.000000	1.700604 
3070.000000	1.705794 
3068.000000	1.704980 
3066.000000	1.703037 
3064.000000	1.702817 
3062.000000	1.699700 
3060.000000	1.698287 
3058.000000	1.699110 
3056.000000	1.701790 
3054.000000	1.703868 
3052.000000	1.702838 
3050.000000	1.702932 
3048.000000	1.702776 
3046.000000	1.697332 
3044.000000	1.693206 
3042.000000	1.695151 
3040.000000	1.696807 
3038.000000	1.696390 
3036.000000	1.701540 
3034.000000	1.698101 
3032.000000	1.691376 
3030.000000	1.695577 
3028.000000	1.696055 
3026.000000	1.690015 
3024.000000	1.687120 
3022.000000	1.689164 
3020.000000	1.691066 
3018.000000	1.690807 
3016.000000	1.694152 
3014.000000	1.695922 
3012.000000	1.693911 
3010.000000	1.690411 
3008.000000	1.684179 
3006.000000	1.682147 
3004.000000	1.686139 
3002.000000	1.686109 
3000.000000	1.680904 
2998.000000	1.683289 
2996.000000	1.689696 
2994.000000	1.691127 
2992.000000	1.690218 
2990.000000	1.688790 
2988.000000	1.685617 
2986.000000	1.686441 
2984.000000	1.688406 
2982.000000	1.691463 
2980.000000	1.695988 
2978.000000	1.689447 
2976.000000	1.682302 
2974.000000	1.684199 
2972.000000	1.692384 
2970.000000	1.702489 
2968.000000	1.702588 
2966.000000	1.695978 
2964.000000	1.691676 
2962.000000	1.695187 
2960.000000	1.696930 
2958.000000	1.692746 
2956.000000	1.696158 
2954.000000	1.698747 
2952.000000	1.688350 
2950.000000	1.679576 
2948.000000	1.685191 
2946.000000	1.691610 
2944.000000	1.691666 
2942.000000	1.693344 
2940.000000	1.695973 
2938.000000	1.697105 
2936.000000	1.695300 
2934.000000	1.698499 
2932.000000	1.704922 
2930.000000	1.705668 
2928.000000	1.702306 
2926.000000	1.697554 
2924.000000	1.694285 
2922.000000	1.697260 
2920.000000	1.691783 
2918.000000	1.685055 
2916.000000	1.687226 
2914.000000	1.685818 
2912.000000	1.680210 
2910.000000	1.678918 
2908.000000	1.677083 
2906.000000	1.676109 
2904.000000	1.673534 
2902.000000	1.670377 
2900.000000	1.673339 
2898.000000	1.672593 
2896.000000	1.664348 
2894.000000	1.661912 
2892.000000	1.663097 
2890.000000	1.656762 
2888.000000	1.656222 
2886.000000	1.654229 
2884.000000	1.657995 
2882.000000	1.667538 
2880.000000	1.667755 
2878.000000	1.666034 
2876.000000	1.663775 
2874.000000	1.658079 
2872.000000	1.654972 
2870.000000	1.657524 
2868.000000	1.659523 
2866.000000	1.655341 
2864.000000	1.654219 
2862.000000	1.659741 
2860.000000	1.664951 
2858.000000	1.667086 
2856.000000	1.666178 
2854.000000	1.664468 
2852.000000	1.662188 
2850.000000	1.658489 
2848.000000	1.652979 
2846.000000	1.651603 
2844.000000	1.651199 
2842.000000	1.647406 
2840.000000	1.647305 
2838.000000	1.640886 
2836.000000	1.634847 
2834.000000	1.636327 
2832.000000	1.641303 
2830.000000	1.645617 
2828.000000	1.644332 
2826.000000	1.643397 
2824.000000	1.640384 
2822.000000	1.642997 
2820.000000	1.641652 
2818.000000	1.632713 
2816.000000	1.632264 
2814.000000	1.632930 
2812.000000	1.629588 
2810.000000	1.631905 
2808.000000	1.636094 
2806.000000	1.637557 
2804.000000	1.637602 
2802.000000	1.635826 
2800.000000	1.635656 
2798.000000	1.635879 
2796.000000	1.635454 
2794.000000	1.632895 
2792.000000	1.629738 
2790.000000	1.627792 
2788.000000	1.632375 
2786.000000	1.635195 
2784.000000	1.633175 
2782.000000	1.634909 
2780.000000	1.638047 
2778.000000	1.636655 
2776.000000	1.633518 
2774.000000	1.629818 
2772.000000	1.627151 
2770.000000	1.626357 
2768.000000	1.627138 
2766.000000	1.629125 
2764.000000	1.629310 
2762.000000	1.630819 
2760.000000	1.632362 
2758.000000	1.632948 
2756.000000	1.630034 
2754.000000	1.629677 
2752.000000	1.632979 
2750.000000	1.631444 
2748.000000	1.627889 
2746.000000	1.625648 
2744.000000	1.622208 
2742.000000	1.623707 
2740.000000	1.629377 
2738.000000	1.627366 
2736.000000	1.627990 
2734.000000	1.631395 
2732.000000	1.626388 
2730.000000	1.620027 
2728.000000	1.620083 
2726.000000	1.621649 
2724.000000	1.623986 
2722.000000	1.626699 
2720.000000	1.631546 
2718.000000	1.631563 
2716.000000	1.631426 
2714.000000	1.630956 
2712.000000	1.622790 
2710.000000	1.619635 
2708.000000	1.623120 
2706.000000	1.626502 
2704.000000	1.626524 
2702.000000	1.626901 
2700.000000	1.628399 
2698.000000	1.628135 
2696.000000	1.625552 
2694.000000	1.620744 
2692.000000	1.619389 
2690.000000	1.621961 
2688.000000	1.621402 
2686.000000	1.617802 
2684.000000	1.616901 
2682.000000	1.617857 
2680.000000	1.618756 
2678.000000	1.620437 
2676.000000	1.619678 
2674.000000	1.614082 
2672.000000	1.616104 
2670.000000	1.620303 
2668.000000	1.617978 
2666.000000	1.615826 
2664.000000	1.617034 
2662.000000	1.617081 
2660.000000	1.622030 
2658.000000	1.623346 
2656.000000	1.616562 
2654.000000	1.613716 
2652.000000	1.618721 
2650.000000	1.621753 
2648.000000	1.618253 
2646.000000	1.616926 
2644.000000	1.618476 
2642.000000	1.618592 
2640.000000	1.616216 
2638.000000	1.614090 
2636.000000	1.616494 
2634.000000	1.620507 
2632.000000	1.620368 
2630.000000	1.617763 
2628.000000	1.612883 
2626.000000	1.609451 
2624.000000	1.611579 
2622.000000	1.617905 
2620.000000	1.622399 
2618.000000	1.618253 
2616.000000	1.613686 
2614.000000	1.613218 
2612.000000	1.613775 
2610.000000	1.613597 
2608.000000	1.614112 
2606.000000	1.615998 
2604.000000	1.615788 
2602.000000	1.615741 
2600.000000	1.613852 
2598.000000	1.609729 
2596.000000	1.612248 
2594.000000	1.616006 
2592.000000	1.611939 
2590.000000	1.610450 
2588.000000	1.613439 
2586.000000	1.615369 
2584.000000	1.615656 
2582.000000	1.613252 
2580.000000	1.609244 
2578.000000	1.609105 
2576.000000	1.611494 
2574.000000	1.612369 
2572.000000	1.610771 
2570.000000	1.610606 
2568.000000	1.611194 
2566.000000	1.612214 
2564.000000	1.613206 
2562.000000	1.608122 
2560.000000	1.605877 
2558.000000	1.608630 
2556.000000	1.608739 
2554.000000	1.604763 
2552.000000	1.604346 
2550.000000	1.609906 
2548.000000	1.610666 
2546.000000	1.605969 
2544.000000	1.605367 
2542.000000	1.604263 
2540.000000	1.603668 
2538.000000	1.608849 
2536.000000	1.612159 
2534.000000	1.609434 
2532.000000	1.603955 
2530.000000	1.601045 
2528.000000	1.602875 
2526.000000	1.608487 
2524.000000	1.612240 
2522.000000	1.612117 
2520.000000	1.608378 
2518.000000	1.603041 
2516.000000	1.603132 
2514.000000	1.603560 
2512.000000	1.604350 
2510.000000	1.607480 
2508.000000	1.606086 
2506.000000	1.602941 
2504.000000	1.604929 
2502.000000	1.605309 
2500.000000	1.598515 
2498.000000	1.595915 
2496.000000	1.599482 
2494.000000	1.598097 
2492.000000	1.595032 
2490.000000	1.599025 
2488.000000	1.603581 
2486.000000	1.602162 
2484.000000	1.601301 
2482.000000	1.605526 
2480.000000	1.607023 
2478.000000	1.603435 
2476.000000	1.601673 
2474.000000	1.596892 
2472.000000	1.592918 
2470.000000	1.596728 
2468.000000	1.600067 
2466.000000	1.599042 
2464.000000	1.596655 
2462.000000	1.595858 
2460.000000	1.597342 
2458.000000	1.594820 
2456.000000	1.588320 
2454.000000	1.590053 
2452.000000	1.593787 
2450.000000	1.593653 
2448.000000	1.593170 
2446.000000	1.596315 
2444.000000	1.596356 
2442.000000	1.595458 
2440.000000	1.595372 
2438.000000	1.594307 
2436.000000	1.594010 
2434.000000	1.597732 
2432.000000	1.601008 
2430.000000	1.596426 
2428.000000	1.588264 
2426.000000	1.587370 
2424.000000	1.591166 
2422.000000	1.594954 
2420.000000	1.595690 
2418.000000	1.594275 
2416.000000	1.596385 
2414.000000	1.595535 
2412.000000	1.588753 
2410.000000	1.586846 
2408.000000	1.589400 
2406.000000	1.592270 
2404.000000	1.593291 
2402.000000	1.593783 
2400.000000	1.593620 
2398.000000	1.593462 
2396.000000	1.591069 
2394.000000	1.590843 
2392.000000	1.595637 
2390.000000	1.596569 
2388.000000	1.594441 
2386.000000	1.592865 
2384.000000	1.593161 
2382.000000	1.596013 
2380.000000	1.597994 
2378.000000	1.595833 
2376.000000	1.595780 
2374.000000	1.602290 
2372.000000	1.605676 
2370.000000	1.609699 
2368.000000	1.612471 
2366.000000	1.610691 
2364.000000	1.608479 
2362.000000	1.608567 
2360.000000	1.621670 
2358.000000	1.633464 
2356.000000	1.625968 
2354.000000	1.619204 
2352.000000	1.622677 
2350.000000	1.618476 
2348.000000	1.607111 
2346.000000	1.604417 
2344.000000	1.605071 
2342.000000	1.607119 
2340.000000	1.614657 
2338.000000	1.616892 
2336.000000	1.614687 
2334.000000	1.621610 
2332.000000	1.629187 
2330.000000	1.622633 
2328.000000	1.617591 
2326.000000	1.626222 
2324.000000	1.628016 
2322.000000	1.627858 
2320.000000	1.631953 
2318.000000	1.632588 
2316.000000	1.631178 
2314.000000	1.633807 
2312.000000	1.633420 
2310.000000	1.627924 
2308.000000	1.629778 
2306.000000	1.636569 
2304.000000	1.643748 
2302.000000	1.647608 
2300.000000	1.648211 
2298.000000	1.648404 
2296.000000	1.653841 
2294.000000	1.663741 
2292.000000	1.670615 
2290.000000	1.679496 
2288.000000	1.688199 
2286.000000	1.692430 
2284.000000	1.702499 
2282.000000	1.715443 
2280.000000	1.735089 
2278.000000	1.751102 
2276.000000	1.763588 
2274.000000	1.772263 
2272.000000	1.782381 
2270.000000	1.798324 
2268.000000	1.817423 
2266.000000	1.835129 
2264.000000	1.845298 
2262.000000	1.853704 
2260.000000	1.860431 
2258.000000	1.867930 
2256.000000	1.874495 
2254.000000	1.872074 
2252.000000	1.871458 
2250.000000	1.874471 
2248.000000	1.875667 
2246.000000	1.869736 
2244.000000	1.855897 
2242.000000	1.843828 
2240.000000	1.839271 
2238.000000	1.837522 
2236.000000	1.830941 
2234.000000	1.813679 
2232.000000	1.799594 
2230.000000	1.795044 
2228.000000	1.783788 
2226.000000	1.775566 
2224.000000	1.773779 
2222.000000	1.777689 
2220.000000	1.781104 
2218.000000	1.779710 
2216.000000	1.785099 
2214.000000	1.792270 
2212.000000	1.794328 
2210.000000	1.797219 
2208.000000	1.801451 
2206.000000	1.807275 
2204.000000	1.805064 
2202.000000	1.803165 
2200.000000	1.799771 
2198.000000	1.794863 
2196.000000	1.793568 
2194.000000	1.793549 
2192.000000	1.790547 
2190.000000	1.781767 
2188.000000	1.773349 
2186.000000	1.768226 
2184.000000	1.762030 
2182.000000	1.750968 
2180.000000	1.740512 
2178.000000	1.737696 
2176.000000	1.733209 
2174.000000	1.730107 
2172.000000	1.729801 
2170.000000	1.725086 
2168.000000	1.724724 
2166.000000	1.727097 
2164.000000	1.728840 
2162.000000	1.731259 
2160.000000	1.734319 
2158.000000	1.734168 
2156.000000	1.731109 
2154.000000	1.728480 
2152.000000	1.728109 
2150.000000	1.729273 
2148.000000	1.729218 
2146.000000	1.730524 
2144.000000	1.734331 
2142.000000	1.730385 
2140.000000	1.720711 
2138.000000	1.714659 
2136.000000	1.709877 
2134.000000	1.706752 
2132.000000	1.707311 
2130.000000	1.709903 
2128.000000	1.709983 
2126.000000	1.707095 
2124.000000	1.705531 
2122.000000	1.709447 
2120.000000	1.709056 
2118.000000	1.706947 
2116.000000	1.706868 
2114.000000	1.704104 
2112.000000	1.697131 
2110.000000	1.691951 
2108.000000	1.692068 
2106.000000	1.688633 
2104.000000	1.685125 
2102.000000	1.686004 
2100.000000	1.681247 
2098.000000	1.674237 
2096.000000	1.668699 
2094.000000	1.663088 
2092.000000	1.661651 
2090.000000	1.660252 
2088.000000	1.658084 
2086.000000	1.658348 
2084.000000	1.657063 
2082.000000	1.648739 
2080.000000	1.635410 
2078.000000	1.627563 
2076.000000	1.619613 
2074.000000	1.608512 
2072.000000	1.598865 
2070.000000	1.593137 
2068.000000	1.588705 
2066.000000	1.581532 
2064.000000	1.575973 
2062.000000	1.572512 
2060.000000	1.567098 
2058.000000	1.560314 
2056.000000	1.556389 
2054.000000	1.553814 
2052.000000	1.553136 
2050.000000	1.549408 
2048.000000	1.543301 
2046.000000	1.541377 
2044.000000	1.541921 
2042.000000	1.541111 
2040.000000	1.539982 
2038.000000	1.535692 
2036.000000	1.532913 
2034.000000	1.534319 
2032.000000	1.534067 
2030.000000	1.535234 
2028.000000	1.536549 
2026.000000	1.534779 
2024.000000	1.534418 
2022.000000	1.532591 
2020.000000	1.531812 
2018.000000	1.531059 
2016.000000	1.529732 
2014.000000	1.528436 
2012.000000	1.523784 
2010.000000	1.522045 
2008.000000	1.523916 
2006.000000	1.524255 
2004.000000	1.521583 
2002.000000	1.521566 
2000.000000	1.524840 
1998.000000	1.525146 
1996.000000	1.524618 
1994.000000	1.522765 
1992.000000	1.521711 
1990.000000	1.522338 
1988.000000	1.520360 
1986.000000	1.520618 
1984.000000	1.518814 
1982.000000	1.517183 
1980.000000	1.519496 
1978.000000	1.519661 
1976.000000	1.514917 
1974.000000	1.511569 
1972.000000	1.512447 
1970.000000	1.513034 
1968.000000	1.513115 
1966.000000	1.514653 
1964.000000	1.515517 
1962.000000	1.513827 
1960.000000	1.513310 
1958.000000	1.514775 
1956.000000	1.514000 
1954.000000	1.513429 
1952.000000	1.509593 
1950.000000	1.507882 
1948.000000	1.512471 
1946.000000	1.512676 
1944.000000	1.506966 
1942.000000	1.507026 
1940.000000	1.510397 
1938.000000	1.509713 
1936.000000	1.510470 
1934.000000	1.511757 
1932.000000	1.510910 
1930.000000	1.510410 
1928.000000	1.509532 
1926.000000	1.507969 
1924.000000	1.507412 
1922.000000	1.507516 
1920.000000	1.505142 
1918.000000	1.506780 
1916.000000	1.510799 
1914.000000	1.509502 
1912.000000	1.506571 
1910.000000	1.505102 
1908.000000	1.503255 
1906.000000	1.502165 
1904.000000	1.503159 
1902.000000	1.501517 
1900.000000	1.500946 
1898.000000	1.503311 
1896.000000	1.503318 
1894.000000	1.502813 
1892.000000	1.500055 
1890.000000	1.499221 
1888.000000	1.505220 
1886.000000	1.505939 
1884.000000	1.503519 
1882.000000	1.501662 
1880.000000	1.499456 
1878.000000	1.497515 
1876.000000	1.494185 
1874.000000	1.492056 
1872.000000	1.490939 
1870.000000	1.489403 
1868.000000	1.496173 
1866.000000	1.497691 
1864.000000	1.491282 
1862.000000	1.486677 
1860.000000	1.487805 
1858.000000	1.490170 
1856.000000	1.490387 
1854.000000	1.489760 
1852.000000	1.490352 
1850.000000	1.488286 
1848.000000	1.485064 
1846.000000	1.481696 
1844.000000	1.487067 
1842.000000	1.494948 
1840.000000	1.490371 
1838.000000	1.486854 
1836.000000	1.485922 
1834.000000	1.484346 
1832.000000	1.477980 
1830.000000	1.477846 
1828.000000	1.484485 
1826.000000	1.486052 
1824.000000	1.489521 
1822.000000	1.484820 
1820.000000	1.477386 
1818.000000	1.475596 
1816.000000	1.476442 
1814.000000	1.474928 
1812.000000	1.476935 
1810.000000	1.482368 
1808.000000	1.480208 
1806.000000	1.476008 
1804.000000	1.475884 
1802.000000	1.472215 
1800.000000	1.472073 
1798.000000	1.472734 
1796.000000	1.467660 
1794.000000	1.461673 
1792.000000	1.469042 
1790.000000	1.473272 
1788.000000	1.465121 
1786.000000	1.460698 
1784.000000	1.462117 
1782.000000	1.461628 
1780.000000	1.461296 
1778.000000	1.459250 
1776.000000	1.453659 
1774.000000	1.449038 
1772.000000	1.459089 
1770.000000	1.466147 
1768.000000	1.459256 
1766.000000	1.455821 
1764.000000	1.448206 
1762.000000	1.450890 
1760.000000	1.457296 
1758.000000	1.451449 
1756.000000	1.453582 
1754.000000	1.446993 
1752.000000	1.440080 
1750.000000	1.452510 
1748.000000	1.456336 
1746.000000	1.452131 
1744.000000	1.444978 
1742.000000	1.443455 
1740.000000	1.443722 
1738.000000	1.445272 
1736.000000	1.429227 
1734.000000	1.440069 
1732.000000	1.459226 
1730.000000	1.450674 
1728.000000	1.450037 
1726.000000	1.447753 
1724.000000	1.444497 
1722.000000	1.442287 
1720.000000	1.428737 
1718.000000	1.430042 
1716.000000	1.447155 
1714.000000	1.445397 
1712.000000	1.438793 
1710.000000	1.432375 
1708.000000	1.426183 
1706.000000	1.427799 
1704.000000	1.427822 
1702.000000	1.405166 
1700.000000	1.421360 
1698.000000	1.426847 
1696.000000	1.419151 
1694.000000	1.433407 
1692.000000	1.418681 
1690.000000	1.406693 
1688.000000	1.405788 
1686.000000	1.393406 
1684.000000	1.409899 
1682.000000	1.429021 
1680.000000	1.417174 
1678.000000	1.407229 
1676.000000	1.400439 
1674.000000	1.410011 
1672.000000	1.402859 
1670.000000	1.400549 
1668.000000	1.412886 
1666.000000	1.404638 
1664.000000	1.395622 
1662.000000	1.403242 
1660.000000	1.402603 
1658.000000	1.393337 
1656.000000	1.374851 
1654.000000	1.367032 
1652.000000	1.413900 
1650.000000	1.407470 
1648.000000	1.389376 
1646.000000	1.403771 
1644.000000	1.405511 
1642.000000	1.392539 
1640.000000	1.387244 
1638.000000	1.381177 
1636.000000	1.392094 
1634.000000	1.413234 
1632.000000	1.403965 
1630.000000	1.389528 
1628.000000	1.385044 
1626.000000	1.382606 
1624.000000	1.378565 
1622.000000	1.391191 
1620.000000	1.385952 
1618.000000	1.373601 
1616.000000	1.385293 
1614.000000	1.385932 
1612.000000	1.373748 
1610.000000	1.369929 
1608.000000	1.369173 
1606.000000	1.365818 
1604.000000	1.361401 
1602.000000	1.357757 
1600.000000	1.356016 
1598.000000	1.354290 
1596.000000	1.349632 
1594.000000	1.345783 
1592.000000	1.342306 
1590.000000	1.339336 
1588.000000	1.340112 
1586.000000	1.338613 
1584.000000	1.336898 
1582.000000	1.335293 
1580.000000	1.330214 
1578.000000	1.321343 
1576.000000	1.331141 
1574.000000	1.337195 
1572.000000	1.321319 
1570.000000	1.319617 
1568.000000	1.330852 
1566.000000	1.324868 
1564.000000	1.317453 
1562.000000	1.301834 
1560.000000	1.293723 
1558.000000	1.333533 
1556.000000	1.332147 
1554.000000	1.320335 
1552.000000	1.311418 
1550.000000	1.305141 
1548.000000	1.304487 
1546.000000	1.300048 
1544.000000	1.298948 
1542.000000	1.296372 
1540.000000	1.307583 
1538.000000	1.317227 
1536.000000	1.300840 
1534.000000	1.292381 
1532.000000	1.299771 
1530.000000	1.292332 
1528.000000	1.284905 
1526.000000	1.287412 
1524.000000	1.284965 
1522.000000	1.279266 
1520.000000	1.291272 
1518.000000	1.284895 
1516.000000	1.284028 
1514.000000	1.282807 
1512.000000	1.277397 
1510.000000	1.269569 
1508.000000	1.262476 
1506.000000	1.286566 
1504.000000	1.288727 
1502.000000	1.270166 
1500.000000	1.261428 
1498.000000	1.263770 
1496.000000	1.270114 
1494.000000	1.269519 
1492.000000	1.261158 
1490.000000	1.263480 
1488.000000	1.271126 
1486.000000	1.273166 
1484.000000	1.268751 
1482.000000	1.264348 
1480.000000	1.260916 
1478.000000	1.252361 
1476.000000	1.251864 
1474.000000	1.256977 
1472.000000	1.269132 
1470.000000	1.268186 
1468.000000	1.255615 
1466.000000	1.250461 
1464.000000	1.257906 
1462.000000	1.257276 
1460.000000	1.245038 
1458.000000	1.244145 
1456.000000	1.264145 
1454.000000	1.261469 
1452.000000	1.251215 
1450.000000	1.246471 
1448.000000	1.245971 
1446.000000	1.246396 
1444.000000	1.239552 
1442.000000	1.235101 
1440.000000	1.228597 
1438.000000	1.221659 
1436.000000	1.231323 
1434.000000	1.229293 
1432.000000	1.218715 
1430.000000	1.219190 
1428.000000	1.221730 
1426.000000	1.214229 
1424.000000	1.209058 
1422.000000	1.204420 
1420.000000	1.202439 
1418.000000	1.210707 
1416.000000	1.206286 
1414.000000	1.199816 
1412.000000	1.197934 
1410.000000	1.195727 
1408.000000	1.191421 
1406.000000	1.188098 
1404.000000	1.190593 
1402.000000	1.188524 
1400.000000	1.183511 
1398.000000	1.184067 
1396.000000	1.183014 
1394.000000	1.184911 
1392.000000	1.181686 
1390.000000	1.173959 
1388.000000	1.173485 
1386.000000	1.175286 
1384.000000	1.171541 
1382.000000	1.168128 
1380.000000	1.165061 
1378.000000	1.161722 
1376.000000	1.157698 
1374.000000	1.158891 
1372.000000	1.158768 
1370.000000	1.152736 
1368.000000	1.149410 
1366.000000	1.146678 
1364.000000	1.144082 
1362.000000	1.144618 
1360.000000	1.142349 
1358.000000	1.139067 
1356.000000	1.138419 
1354.000000	1.136424 
1352.000000	1.131983 
1350.000000	1.129934 
1348.000000	1.128950 
1346.000000	1.125332 
1344.000000	1.122569 
1342.000000	1.120728 
1340.000000	1.119095 
1338.000000	1.116725 
1336.000000	1.113872 
1334.000000	1.112654 
1332.000000	1.111259 
1330.000000	1.109475 
1328.000000	1.107137 
1326.000000	1.105152 
1324.000000	1.105103 
1322.000000	1.103708 
1320.000000	1.101721 
1318.000000	1.099282 
1316.000000	1.097076 
1314.000000	1.094502 
1312.000000	1.092805 
1310.000000	1.091730 
1308.000000	1.089649 
1306.000000	1.086822 
1304.000000	1.085398 
1302.000000	1.085225 
1300.000000	1.084404 
1298.000000	1.082576 
1296.000000	1.080620 
1294.000000	1.079731 
1292.000000	1.078229 
1290.000000	1.076059 
1288.000000	1.074671 
1286.000000	1.072324 
1284.000000	1.070132 
1282.000000	1.069057 
1280.000000	1.068042 
1278.000000	1.067730 
1276.000000	1.067397 
1274.000000	1.067229 
1272.000000	1.066491 
1270.000000	1.065008 
1268.000000	1.064549 
1266.000000	1.063604 
1264.000000	1.062904 
1262.000000	1.063763 
1260.000000	1.062562 
1258.000000	1.061742 
1256.000000	1.061038 
1254.000000	1.060441 
1252.000000	1.063221 
1250.000000	1.066558 
1248.000000	1.067481 
1246.000000	1.068541 
1244.000000	1.072008 
1242.000000	1.076409 
1240.000000	1.080091 
1238.000000	1.085998 
1236.000000	1.092991 
1234.000000	1.099951 
1232.000000	1.109693 
1230.000000	1.122347 
1228.000000	1.134367 
1226.000000	1.145269 
1224.000000	1.157733 
1222.000000	1.172030 
1220.000000	1.188329 
1218.000000	1.206046 
1216.000000	1.222716 
1214.000000	1.239090 
1212.000000	1.257713 
1210.000000	1.276868 
1208.000000	1.294093 
1206.000000	1.314305 
1204.000000	1.337028 
1202.000000	1.356381 
1200.000000	1.372663 
1198.000000	1.389917 
1196.000000	1.411199 
1194.000000	1.432221 
1192.000000	1.452718 
1190.000000	1.471049 
1188.000000	1.487045 
1186.000000	1.504408 
1184.000000	1.523103 
1182.000000	1.543431 
1180.000000	1.563699 
1178.000000	1.577387 
1176.000000	1.588312 
1174.000000	1.603556 
1172.000000	1.616361 
1170.000000	1.629774 
1168.000000	1.644958 
1166.000000	1.653468 
1164.000000	1.662093 
1162.000000	1.672447 
1160.000000	1.680224 
1158.000000	1.692272 
1156.000000	1.706067 
1154.000000	1.711168 
1152.000000	1.721615 
1150.000000	1.738064 
1148.000000	1.743162 
1146.000000	1.745322 
1144.000000	1.755620 
1142.000000	1.761581 
1140.000000	1.759976 
1138.000000	1.766487 
1136.000000	1.774444 
1134.000000	1.784840 
1132.000000	1.797355 
1130.000000	1.801425 
1128.000000	1.809499 
1126.000000	1.819298 
1124.000000	1.817070 
1122.000000	1.811749 
1120.000000	1.821689 
1118.000000	1.835455 
1116.000000	1.839493 
1114.000000	1.841486 
1112.000000	1.844595 
1110.000000	1.848463 
1108.000000	1.860011 
1106.000000	1.870273 
1104.000000	1.876461 
1102.000000	1.883167 
1100.000000	1.890322 
1098.000000	1.892111 
1096.000000	1.897313 
1094.000000	1.916344 
1092.000000	1.915721 
1090.000000	1.925238 
1088.000000	1.941445 
1086.000000	1.954042 
1084.000000	1.972120 
1082.000000	1.990133 
1080.000000	2.006771 
1078.000000	2.026766 
1076.000000	2.037675 
1074.000000	2.044857 
1072.000000	2.032005 
1070.000000	2.030037 
1068.000000	2.046030 
1066.000000	2.032406 
1064.000000	2.017884 
1062.000000	2.033629 
1060.000000	2.035872 
1058.000000	2.012278 
1056.000000	1.999379 
1054.000000	1.995356 
1052.000000	1.983491 
1050.000000	1.969941 
1048.000000	1.963913 
1046.000000	1.955861 
1044.000000	1.935792 
1042.000000	1.919721 
1040.000000	1.888708 
1038.000000	1.853689 
1036.000000	1.835256 
1034.000000	1.813080 
1032.000000	1.783983 
1030.000000	1.746626 
1028.000000	1.708045 
1026.000000	1.678014 
1024.000000	1.638249 
1022.000000	1.596017 
1020.000000	1.561750 
1018.000000	1.522341 
1016.000000	1.476222 
1014.000000	1.430388 
1012.000000	1.385165 
1010.000000	1.342572 
1008.000000	1.299202 
1006.000000	1.256719 
1004.000000	1.217062 
1002.000000	1.178308 
1000.000000	1.141658 
998.000000	 1.110956 
996.000000	 1.085387 
994.000000	 1.064754 
992.000000	 1.048444 
990.000000	 1.038837 
988.000000	 1.039412 
986.000000	 1.042615 
984.000000	 1.039977 
982.000000	 1.033517 
980.000000	 1.023910 
978.000000	 1.010517 
976.000000	 0.989337 
974.000000	 0.963517 
972.000000	 0.939092 
970.000000	 0.915942 
968.000000	 0.895357 
966.000000	 0.879350 
964.000000	 0.867268 
962.000000	 0.857317 
960.000000	 0.850453 
958.000000	 0.845284 
956.000000	 0.843068 
954.000000	 0.846185 
952.000000	 0.852953 
950.000000	 0.862482 
948.000000	 0.874010 
946.000000	 0.885793 
944.000000	 0.897256 
942.000000	 0.904167 
940.000000	 0.905601 
938.000000	 0.903666 
936.000000	 0.897928 
934.000000	 0.890562 
932.000000	 0.883367 
930.000000	 0.875341 
928.000000	 0.865450 
926.000000	 0.854687 
924.000000	 0.843726 
922.000000	 0.833704 
920.000000	 0.824996 
918.000000	 0.818969 
916.000000	 0.816067 
914.000000	 0.814634 
912.000000	 0.814976 
910.000000	 0.818712 
908.000000	 0.825013 
906.000000	 0.831915 
904.000000	 0.838765 
902.000000	 0.848049 
900.000000	 0.861414 
898.000000	 0.879614 
896.000000	 0.903614 
894.000000	 0.933223 
892.000000	 0.970240 
890.000000	 1.012538 
888.000000	 1.055063 
886.000000	 1.093946 
884.000000	 1.130859 
882.000000	 1.162775 
880.000000	 1.182582 
878.000000	 1.192455 
876.000000	 1.196407 
874.000000	 1.194326 
872.000000	 1.186804 
870.000000	 1.174851 
868.000000	 1.161117 
866.000000	 1.150628 
864.000000	 1.141071 
862.000000	 1.131316 
860.000000	 1.120896 
858.000000	 1.108432 
856.000000	 1.099450 
854.000000	 1.093277 
852.000000	 1.087026 
850.000000	 1.082975 
848.000000	 1.080031 
846.000000	 1.075287 
844.000000	 1.068270 
842.000000	 1.061663 
840.000000	 1.052816 
838.000000	 1.038971 
836.000000	 1.023550 
834.000000	 1.001598 
832.000000	 0.968563 
830.000000	 0.928243 
828.000000	 0.883862 
826.000000	 0.837166 
824.000000	 0.792714 
822.000000	 0.756012 
820.000000	 0.726860 
818.000000	 0.703470 
816.000000	 0.684337 
814.000000	 0.669053 
812.000000	 0.656911 
810.000000	 0.647393 
808.000000	 0.640049 
806.000000	 0.633848 
804.000000	 0.626915 
802.000000	 0.618684 
800.000000	 0.611509 
798.000000	 0.604661 
796.000000	 0.597118 
794.000000	 0.589725 
792.000000	 0.582320 
790.000000	 0.575005 
788.000000	 0.568161 
786.000000	 0.561142 
784.000000	 0.555045 
782.000000	 0.549785 
780.000000	 0.544741 
778.000000	 0.540732 
776.000000	 0.536741 
774.000000	 0.532817 
772.000000	 0.529416 
770.000000	 0.526824 
768.000000	 0.524552 
766.000000	 0.522558 
764.000000	 0.521066 
762.000000	 0.520437 
760.000000	 0.520189 
758.000000	 0.519569 
756.000000	 0.518424 
754.000000	 0.518041 
752.000000	 0.518789 
750.000000	 0.518901 
748.000000	 0.517910 
746.000000	 0.516944 
744.000000	 0.516294 
742.000000	 0.515017 
740.000000	 0.513255 
738.000000	 0.512422 
736.000000	 0.511116 
734.000000	 0.508572 
732.000000	 0.505360 
730.000000	 0.501923 
728.000000	 0.499297 
726.000000	 0.497124 
724.000000	 0.494870 
722.000000	 0.493428 
720.000000	 0.492968 
718.000000	 0.492125 
716.000000	 0.491835 
714.000000	 0.493088 
712.000000	 0.494060 
710.000000	 0.493140 
708.000000	 0.489296 
706.000000	 0.482673 
704.000000	 0.474808 
702.000000	 0.466586 
700.000000	 0.457042 
698.000000	 0.447173 
696.000000	 0.439150 
694.000000	 0.432708 
692.000000	 0.426871 
690.000000	 0.422181 
688.000000	 0.419401 
686.000000	 0.417047 
684.000000	 0.414381 
682.000000	 0.412140 
680.000000	 0.410649 
678.000000	 0.408970 
676.000000	 0.406903 
674.000000	 0.405872 
672.000000	 0.405252 
670.000000	 0.407179 
668.000000	 0.408854 
666.000000	 0.399907 
664.000000	 0.392397 
662.000000	 0.388987 
660.000000	 0.386313 
658.000000	 0.383371 
656.000000	 0.380009 
654.000000	 0.377751 
652.000000	 0.376002 
650.000000	 0.374402 
648.000000	 0.372115 
646.000000	 0.369926 
644.000000	 0.368158 
642.000000	 0.366840 
640.000000	 0.365283 
638.000000	 0.362722 
636.000000	 0.359947 
634.000000	 0.357299 
632.000000	 0.354398 
630.000000	 0.349954 
628.000000	 0.342789 
626.000000	 0.334331 
624.000000	 0.326613 
622.000000	 0.318145 
620.000000	 0.309407 
618.000000	 0.301853 
616.000000	 0.294600 
614.000000	 0.287106 
612.000000	 0.279935 
610.000000	 0.272821 
608.000000	 0.265284 
606.000000	 0.258932 
604.000000	 0.254164 
602.000000	 0.250009 
600.000000	 0.245721 
598.000000	 0.240352 
596.000000	 0.235255 
594.000000	 0.230719 
592.000000	 0.225139 
590.000000	 0.220255 
588.000000	 0.216056 
586.000000	 0.211905 
584.000000	 0.207962 
582.000000	 0.203202 
580.000000	 0.198580 
578.000000	 0.194468 
576.000000	 0.190037 
574.000000	 0.186400 
572.000000	 0.183594 
570.000000	 0.179831 
568.000000	 0.175526 
566.000000	 0.172509 
564.000000	 0.170949 
562.000000	 0.168684 
560.000000	 0.166104 
558.000000	 0.164314 
556.000000	 0.162630 
554.000000	 0.160680 
552.000000	 0.158942 
550.000000	 0.158936 
548.000000	 0.158924 
546.000000	 0.158082 
544.000000	 0.158042 
542.000000	 0.158083 
540.000000	 0.157846 
538.000000	 0.158102 
536.000000	 0.158353 
534.000000	 0.159364 
532.000000	 0.160645 
530.000000	 0.161238 
528.000000	 0.161174 
526.000000	 0.161580 
524.000000	 0.162702 
522.000000	 0.163690 
520.000000	 0.164783 
518.000000	 0.165718 
516.000000	 0.166326 
514.000000	 0.167390 
512.000000	 0.168643 
510.000000	 0.170370 
508.000000	 0.173163 
506.000000	 0.176184 
504.000000	 0.179438 
502.000000	 0.183047 
500.000000	 0.186949 
498.000000	 0.192129 
496.000000	 0.198216 
494.000000	 0.205544 
492.000000	 0.214069 
490.000000	 0.223418 
488.000000	 0.232921 
486.000000	 0.242613 
484.000000	 0.253392 
482.000000	 0.263186 
480.000000	 0.273384 
478.000000	 0.284268 
476.000000	 0.292912 
474.000000	 0.300971 
472.000000	 0.310936 
470.000000	 0.319796 
468.000000	 0.326343 
466.000000	 0.331117 
464.000000	 0.333902 
462.000000	 0.336431 
460.000000	 0.338949 
458.000000	 0.342083 
456.000000	 0.344870 
454.000000	 0.346404 
452.000000	 0.346832 
450.000000	 0.345713 

