PE IR       SUBTECH     SPECTRUM    ASCII       PEDS        1.60        
  -1
1911A0.ASC
07/11/19
13:15:48.00
07/11/20
10:05:07.00
koro/arcerd
sin recocido
450.000000
16









1004,02.19S
DTGS
MIR
KBR
52208
0.300000

4.000000
STRONG
RATIO
MAGNITUDE


DOUBLE SIDED
16
BIDIRECTIONAL
2




#HDR
-1
-1
#GR
CM-1
A
0.00000011920928955078
0.0
4400.000000
-2.000000
1976
8
1.606086
-0.009364
#DATA
4400.000000	1.590105  
4398.000000	1.590210  
4396.000000	1.588211  
4394.000000	1.586570  
4392.000000	1.583289  
4390.000000	1.590879  
4388.000000	1.602651  
4386.000000	1.605856  
4384.000000	1.597554  
4382.000000	1.588464  
4380.000000	1.596412  
4378.000000	1.603551  
4376.000000	1.604234  
4374.000000	1.606086  
4372.000000	1.599353  
4370.000000	1.585663  
4368.000000	1.589364  
4366.000000	1.595865  
4364.000000	1.591291  
4362.000000	1.591655  
4360.000000	1.596053  
4358.000000	1.595681  
4356.000000	1.593698  
4354.000000	1.595865  
4352.000000	1.595750  
4350.000000	1.595901  
4348.000000	1.595583  
4346.000000	1.594292  
4344.000000	1.591983  
4342.000000	1.591627  
4340.000000	1.593296  
4338.000000	1.591219  
4336.000000	1.596326  
4334.000000	1.601495  
4332.000000	1.605923  
4330.000000	1.603622  
4328.000000	1.591138  
4326.000000	1.579671  
4324.000000	1.578999  
4322.000000	1.583594  
4320.000000	1.584508  
4318.000000	1.589871  
4316.000000	1.595734  
4314.000000	1.595444  
4312.000000	1.596977  
4310.000000	1.595604  
4308.000000	1.593808  
4306.000000	1.587090  
4304.000000	1.590266  
4302.000000	1.586542  
4300.000000	1.588027  
4298.000000	1.596363  
4296.000000	1.594621  
4294.000000	1.586206  
4292.000000	1.587298  
4290.000000	1.595212  
4288.000000	1.592351  
4286.000000	1.588147  
4284.000000	1.585093  
4282.000000	1.586918  
4280.000000	1.591231  
4278.000000	1.593414  
4276.000000	1.597263  
4274.000000	1.593454  
4272.000000	1.592623  
4270.000000	1.594780  
4268.000000	1.596870  
4266.000000	1.596617  
4264.000000	1.589364  
4262.000000	1.581618  
4260.000000	1.583031  
4258.000000	1.590025  
4256.000000	1.589115  
4254.000000	1.587458  
4252.000000	1.587310  
4250.000000	1.594426  
4248.000000	1.598695  
4246.000000	1.596453  
4244.000000	1.592015  
4242.000000	1.591081  
4240.000000	1.586814  
4238.000000	1.585018  
4236.000000	1.593775  
4234.000000	1.597190  
4232.000000	1.595481  
4230.000000	1.590037  
4228.000000	1.588838  
4226.000000	1.592647  
4224.000000	1.590754  
4222.000000	1.590057  
4220.000000	1.598424  
4218.000000	1.600879  
4216.000000	1.591651  
4214.000000	1.595477  
4212.000000	1.604221  
4210.000000	1.604346  
4208.000000	1.603959  
4206.000000	1.600995  
4204.000000	1.595334  
4202.000000	1.596024  
4200.000000	1.604792  
4198.000000	1.596085  
4196.000000	1.587290  
4194.000000	1.589047  
4192.000000	1.594837  
4190.000000	1.597194  
4188.000000	1.593580  
4186.000000	1.592193  
4184.000000	1.596380  
4182.000000	1.598675  
4180.000000	1.594739  
4178.000000	1.589397  
4176.000000	1.588601  
4174.000000	1.588500  
4172.000000	1.587514  
4170.000000	1.590206  
4168.000000	1.591021  
4166.000000	1.586414  
4164.000000	1.587162  
4162.000000	1.586998  
4160.000000	1.587879  
4158.000000	1.592700  
4156.000000	1.593641  
4154.000000	1.589055  
4152.000000	1.583099  
4150.000000	1.583769  
4148.000000	1.582203  
4146.000000	1.583733  
4144.000000	1.590008  
4142.000000	1.594585  
4140.000000	1.593572  
4138.000000	1.587506  
4136.000000	1.586854  
4134.000000	1.590613  
4132.000000	1.593369  
4130.000000	1.584851  
4128.000000	1.576609  
4126.000000	1.582033  
4124.000000	1.587538  
4122.000000	1.582869  
4120.000000	1.579891  
4118.000000	1.583071  
4116.000000	1.585078  
4114.000000	1.582746  
4112.000000	1.577935  
4110.000000	1.578022  
4108.000000	1.581737  
4106.000000	1.583186  
4104.000000	1.579254  
4102.000000	1.582267  
4100.000000	1.582576  
4098.000000	1.581365  
4096.000000	1.581567  
4094.000000	1.575954  
4092.000000	1.582211  
4090.000000	1.585863  
4088.000000	1.578684  
4086.000000	1.573344  
4084.000000	1.577904  
4082.000000	1.580383  
4080.000000	1.573546  
4078.000000	1.575279  
4076.000000	1.584262  
4074.000000	1.586854  
4072.000000	1.575942  
4070.000000	1.567790  
4068.000000	1.566117  
4066.000000	1.567614  
4064.000000	1.578339  
4062.000000	1.585233  
4060.000000	1.577979  
4058.000000	1.570974  
4056.000000	1.569931  
4054.000000	1.569658  
4052.000000	1.573248  
4050.000000	1.575482  
4048.000000	1.576680  
4046.000000	1.575579  
4044.000000	1.575934  
4042.000000	1.574602  
4040.000000	1.570728  
4038.000000	1.571916  
4036.000000	1.571673  
4034.000000	1.571449  
4032.000000	1.571287  
4030.000000	1.568062  
4028.000000	1.568521  
4026.000000	1.575361  
4024.000000	1.579804  
4022.000000	1.579281  
4020.000000	1.579443  
4018.000000	1.578147  
4016.000000	1.573155  
4014.000000	1.568648  
4012.000000	1.564860  
4010.000000	1.566033  
4008.000000	1.569039  
4006.000000	1.572082  
4004.000000	1.573662  
4002.000000	1.574727  
4000.000000	1.576176  
3998.000000	1.577536  
3996.000000	1.572017  
3994.000000	1.567778  
3992.000000	1.571152  
3990.000000	1.571271  
3988.000000	1.570974  
3986.000000	1.571264  
3984.000000	1.571835  
3982.000000	1.571986  
3980.000000	1.572349  
3978.000000	1.566719  
3976.000000	1.565134  
3974.000000	1.564742  
3972.000000	1.563407  
3970.000000	1.569669  
3968.000000	1.574470  
3966.000000	1.574602  
3964.000000	1.568012  
3962.000000	1.561460  
3960.000000	1.559841  
3958.000000	1.560412  
3956.000000	1.561780  
3954.000000	1.558797  
3952.000000	1.555350  
3950.000000	1.561561  
3948.000000	1.571129  
3946.000000	1.562143  
3944.000000	1.557334  
3942.000000	1.567671  
3940.000000	1.568315  
3938.000000	1.563202  
3936.000000	1.557401  
3934.000000	1.560789  
3932.000000	1.564146  
3930.000000	1.563016  
3928.000000	1.566307  
3926.000000	1.569700  
3924.000000	1.568909  
3922.000000	1.563013  
3920.000000	1.560525  
3918.000000	1.562158  
3916.000000	1.566788  
3914.000000	1.563892  
3912.000000	1.563623  
3910.000000	1.563706  
3908.000000	1.562317  
3906.000000	1.561735  
3904.000000	1.563839  
3902.000000	1.565678  
3900.000000	1.568506  
3898.000000	1.569393  
3896.000000	1.562354  
3894.000000	1.557752  
3892.000000	1.564157  
3890.000000	1.564727  
3888.000000	1.557816  
3886.000000	1.560679  
3884.000000	1.557498  
3882.000000	1.557771  
3880.000000	1.566471  
3878.000000	1.558741  
3876.000000	1.554500  
3874.000000	1.556438  
3872.000000	1.562252  
3870.000000	1.572303  
3868.000000	1.562752  
3866.000000	1.558471  
3864.000000	1.559450  
3862.000000	1.559105  
3860.000000	1.557457  
3858.000000	1.549088  
3856.000000	1.539946  
3854.000000	1.560273  
3852.000000	1.577638  
3850.000000	1.574933  
3848.000000	1.568824  
3846.000000	1.557408  
3844.000000	1.550980  
3842.000000	1.550796  
3840.000000	1.551592  
3838.000000	1.560284  
3836.000000	1.561886  
3834.000000	1.552075  
3832.000000	1.554362  
3830.000000	1.559623  
3828.000000	1.558052  
3826.000000	1.556415  
3824.000000	1.549014  
3822.000000	1.558865  
3820.000000	1.555879  
3818.000000	1.547328  
3816.000000	1.560194  
3814.000000	1.556956  
3812.000000	1.552138  
3810.000000	1.547029  
3808.000000	1.552064  
3806.000000	1.556624  
3804.000000	1.552810  
3802.000000	1.564454  
3800.000000	1.563282  
3798.000000	1.559799  
3796.000000	1.559593  
3794.000000	1.553261  
3792.000000	1.553132  
3790.000000	1.555295  
3788.000000	1.554607  
3786.000000	1.554997  
3784.000000	1.550255  
3782.000000	1.547112  
3780.000000	1.548249  
3778.000000	1.552511  
3776.000000	1.556665  
3774.000000	1.554266  
3772.000000	1.554140  
3770.000000	1.554470  
3768.000000	1.552773  
3766.000000	1.559491  
3764.000000	1.557225  
3762.000000	1.542871  
3760.000000	1.544174  
3758.000000	1.552019  
3756.000000	1.550829  
3754.000000	1.551415  
3752.000000	1.554088  
3750.000000	1.551964  
3748.000000	1.549286  
3746.000000	1.552481  
3744.000000	1.562990  
3742.000000	1.545302  
3740.000000	1.535933  
3738.000000	1.541662  
3736.000000	1.554592  
3734.000000	1.552585  
3732.000000	1.551256  
3730.000000	1.546216  
3728.000000	1.544453  
3726.000000	1.543732  
3724.000000	1.539357  
3722.000000	1.549990  
3720.000000	1.554968  
3718.000000	1.553791  
3716.000000	1.546894  
3714.000000	1.540729  
3712.000000	1.546718  
3710.000000	1.553895  
3708.000000	1.551076  
3706.000000	1.542925  
3704.000000	1.539705  
3702.000000	1.541157  
3700.000000	1.542636  
3698.000000	1.546580  
3696.000000	1.542513  
3694.000000	1.533366  
3692.000000	1.535645  
3690.000000	1.541417  
3688.000000	1.544623  
3686.000000	1.541110  
3684.000000	1.533985  
3682.000000	1.531721  
3680.000000	1.531284  
3678.000000	1.530908  
3676.000000	1.549921  
3674.000000	1.551216  
3672.000000	1.542037  
3670.000000	1.546270  
3668.000000	1.544645  
3666.000000	1.541867  
3664.000000	1.542668  
3662.000000	1.542044  
3660.000000	1.543044  
3658.000000	1.541298  
3656.000000	1.539680  
3654.000000	1.535503  
3652.000000	1.529399  
3650.000000	1.530613  
3648.000000	1.533804  
3646.000000	1.533214  
3644.000000	1.533765  
3642.000000	1.535812  
3640.000000	1.534924  
3638.000000	1.535414  
3636.000000	1.535393  
3634.000000	1.527598  
3632.000000	1.522537  
3630.000000	1.528909  
3628.000000	1.535357  
3626.000000	1.531665  
3624.000000	1.530290  
3622.000000	1.532980  
3620.000000	1.541096  
3618.000000	1.544039  
3616.000000	1.538795  
3614.000000	1.539730  
3612.000000	1.534775  
3610.000000	1.533939  
3608.000000	1.543294  
3606.000000	1.542596  
3604.000000	1.537165  
3602.000000	1.534669  
3600.000000	1.536189  
3598.000000	1.535300  
3596.000000	1.534321  
3594.000000	1.538455  
3592.000000	1.538731  
3590.000000	1.528755  
3588.000000	1.533348  
3586.000000	1.542325  
3584.000000	1.537380  
3582.000000	1.535531  
3580.000000	1.539024  
3578.000000	1.540355  
3576.000000	1.535240  
3574.000000	1.527783  
3572.000000	1.523621  
3570.000000	1.523839  
3568.000000	1.531098  
3566.000000	1.537554  
3564.000000	1.536392  
3562.000000	1.529816  
3560.000000	1.526132  
3558.000000	1.524421  
3556.000000	1.521387  
3554.000000	1.526657  
3552.000000	1.533245  
3550.000000	1.530697  
3548.000000	1.530620  
3546.000000	1.537665  
3544.000000	1.536054  
3542.000000	1.527082  
3540.000000	1.521029  
3538.000000	1.525454  
3536.000000	1.529798  
3534.000000	1.529805  
3532.000000	1.529641  
3530.000000	1.528401  
3528.000000	1.534548  
3526.000000	1.536595  
3524.000000	1.534116  
3522.000000	1.530455  
3520.000000	1.529774  
3518.000000	1.524656  
3516.000000	1.522699  
3514.000000	1.526981  
3512.000000	1.525795  
3510.000000	1.525194  
3508.000000	1.523379  
3506.000000	1.525055  
3504.000000	1.530153  
3502.000000	1.528244  
3500.000000	1.527312  
3498.000000	1.528569  
3496.000000	1.529960  
3494.000000	1.527748  
3492.000000	1.523628  
3490.000000	1.522158  
3488.000000	1.526076  
3486.000000	1.525676  
3484.000000	1.526153  
3482.000000	1.527235  
3480.000000	1.527187  
3478.000000	1.524729  
3476.000000	1.516880  
3474.000000	1.517804  
3472.000000	1.520438  
3470.000000	1.522361  
3468.000000	1.522948  
3466.000000	1.521005  
3464.000000	1.518579  
3462.000000	1.519413  
3460.000000	1.523483  
3458.000000	1.526361  
3456.000000	1.524677  
3454.000000	1.517119  
3452.000000	1.514731  
3450.000000	1.516972  
3448.000000	1.522596  
3446.000000	1.527706  
3444.000000	1.527581  
3442.000000	1.525979  
3440.000000	1.524130  
3438.000000	1.522941  
3436.000000	1.522313  
3434.000000	1.521524  
3432.000000	1.517159  
3430.000000	1.518493  
3428.000000	1.520147  
3426.000000	1.519821  
3424.000000	1.519270  
3422.000000	1.514734  
3420.000000	1.518818  
3418.000000	1.521229  
3416.000000	1.521920  
3414.000000	1.524688  
3412.000000	1.524030  
3410.000000	1.523822  
3408.000000	1.522879  
3406.000000	1.521452  
3404.000000	1.519677  
3402.000000	1.517602  
3400.000000	1.517507  
3398.000000	1.516557  
3396.000000	1.514727  
3394.000000	1.515300  
3392.000000	1.519629  
3390.000000	1.525458  
3388.000000	1.523138  
3386.000000	1.519526  
3384.000000	1.522872  
3382.000000	1.518657  
3380.000000	1.511881  
3378.000000	1.509793  
3376.000000	1.510648  
3374.000000	1.515531  
3372.000000	1.519153  
3370.000000	1.522685  
3368.000000	1.523438  
3366.000000	1.521703  
3364.000000	1.513321  
3362.000000	1.508586  
3360.000000	1.507705  
3358.000000	1.509659  
3356.000000	1.510272  
3354.000000	1.509562  
3352.000000	1.514145  
3350.000000	1.517456  
3348.000000	1.515039  
3346.000000	1.510500  
3344.000000	1.508923  
3342.000000	1.506902  
3340.000000	1.504762  
3338.000000	1.504312  
3336.000000	1.506294  
3334.000000	1.509231  
3332.000000	1.510769  
3330.000000	1.510816  
3328.000000	1.509509  
3326.000000	1.509572  
3324.000000	1.511804  
3322.000000	1.512390  
3320.000000	1.507189  
3318.000000	1.503450  
3316.000000	1.508202  
3314.000000	1.508556  
3312.000000	1.507695  
3310.000000	1.509937  
3308.000000	1.509371  
3306.000000	1.502971  
3304.000000	1.501947  
3302.000000	1.506876  
3300.000000	1.506264  
3298.000000	1.501382  
3296.000000	1.500814  
3294.000000	1.506942  
3292.000000	1.507892  
3290.000000	1.504421  
3288.000000	1.505783  
3286.000000	1.506996  
3284.000000	1.503820  
3282.000000	1.503136  
3280.000000	1.506796  
3278.000000	1.506211  
3276.000000	1.506766  
3274.000000	1.506590  
3272.000000	1.504520  
3270.000000	1.502322  
3268.000000	1.505159  
3266.000000	1.507535  
3264.000000	1.501185  
3262.000000	1.493479  
3260.000000	1.490989  
3258.000000	1.497800  
3256.000000	1.504679  
3254.000000	1.505949  
3252.000000	1.503519  
3250.000000	1.503285  
3248.000000	1.503437  
3246.000000	1.500955  
3244.000000	1.499674  
3242.000000	1.500981  
3240.000000	1.505922  
3238.000000	1.507685  
3236.000000	1.503549  
3234.000000	1.498494  
3232.000000	1.497631  
3230.000000	1.497859  
3228.000000	1.493737  
3226.000000	1.495040  
3224.000000	1.499373  
3222.000000	1.498942  
3220.000000	1.496203  
3218.000000	1.496980  
3216.000000	1.500129  
3214.000000	1.499089  
3212.000000	1.495315  
3210.000000	1.492203  
3208.000000	1.494506  
3206.000000	1.496534  
3204.000000	1.495121  
3202.000000	1.489996  
3200.000000	1.488039  
3198.000000	1.491025  
3196.000000	1.495626  
3194.000000	1.497227  
3192.000000	1.493869  
3190.000000	1.493163  
3188.000000	1.491532  
3186.000000	1.492618  
3184.000000	1.493847  
3182.000000	1.493372  
3180.000000	1.495846  
3178.000000	1.496509  
3176.000000	1.494225  
3174.000000	1.489884  
3172.000000	1.489641  
3170.000000	1.491009  
3168.000000	1.489398  
3166.000000	1.485286  
3164.000000	1.484009  
3162.000000	1.486840  
3160.000000	1.490169  
3158.000000	1.494328  
3156.000000	1.489322  
3154.000000	1.485540  
3152.000000	1.487746  
3150.000000	1.489057  
3148.000000	1.488170  
3146.000000	1.491779  
3144.000000	1.493218  
3142.000000	1.490150  
3140.000000	1.493144  
3138.000000	1.495218  
3136.000000	1.490836  
3134.000000	1.484783  
3132.000000	1.484164  
3130.000000	1.484657  
3128.000000	1.483467  
3126.000000	1.484486  
3124.000000	1.485578  
3122.000000	1.485343  
3120.000000	1.484828  
3118.000000	1.487740  
3116.000000	1.486243  
3114.000000	1.482683  
3112.000000	1.481693  
3110.000000	1.483199  
3108.000000	1.484275  
3106.000000	1.482639  
3104.000000	1.485977  
3102.000000	1.486354  
3100.000000	1.488208  
3098.000000	1.487282  
3096.000000	1.487231  
3094.000000	1.486424  
3092.000000	1.481448  
3090.000000	1.480815  
3088.000000	1.482991  
3086.000000	1.483681  
3084.000000	1.481768  
3082.000000	1.482167  
3080.000000	1.480436  
3078.000000	1.481784  
3076.000000	1.483060  
3074.000000	1.480849  
3072.000000	1.480035  
3070.000000	1.479379  
3068.000000	1.478764  
3066.000000	1.479382  
3064.000000	1.479895  
3062.000000	1.479442  
3060.000000	1.482258  
3058.000000	1.482793  
3056.000000	1.481844  
3054.000000	1.483079  
3052.000000	1.478836  
3050.000000	1.477737  
3048.000000	1.479245  
3046.000000	1.480686  
3044.000000	1.478677  
3042.000000	1.477432  
3040.000000	1.478048  
3038.000000	1.477463  
3036.000000	1.480824  
3034.000000	1.483079  
3032.000000	1.481539  
3030.000000	1.479992  
3028.000000	1.481338  
3026.000000	1.482029  
3024.000000	1.479023  
3022.000000	1.474971  
3020.000000	1.470267  
3018.000000	1.469015  
3016.000000	1.472963  
3014.000000	1.478431  
3012.000000	1.479707  
3010.000000	1.476960  
3008.000000	1.474054  
3006.000000	1.475825  
3004.000000	1.477902  
3002.000000	1.480336  
3000.000000	1.480790  
2998.000000	1.476857  
2996.000000	1.474980  
2994.000000	1.471011  
2992.000000	1.469861  
2990.000000	1.469916  
2988.000000	1.470353  
2986.000000	1.474180  
2984.000000	1.477273  
2982.000000	1.475868  
2980.000000	1.473767  
2978.000000	1.471897  
2976.000000	1.471293  
2974.000000	1.470530  
2972.000000	1.469461  
2970.000000	1.473037  
2968.000000	1.475181  
2966.000000	1.475033  
2964.000000	1.475880  
2962.000000	1.472526  
2960.000000	1.470377  
2958.000000	1.471057  
2956.000000	1.472483  
2954.000000	1.473989  
2952.000000	1.477040  
2950.000000	1.478693  
2948.000000	1.476227  
2946.000000	1.473077  
2944.000000	1.471020  
2942.000000	1.472228  
2940.000000	1.470310  
2938.000000	1.469735  
2936.000000	1.473080  
2934.000000	1.474912  
2932.000000	1.473074  
2930.000000	1.475636  
2928.000000	1.478471  
2926.000000	1.475481  
2924.000000	1.476057  
2922.000000	1.477320  
2920.000000	1.475753  
2918.000000	1.474291  
2916.000000	1.472923  
2914.000000	1.471051  
2912.000000	1.468973  
2910.000000	1.469888  
2908.000000	1.469284  
2906.000000	1.469128  
2904.000000	1.467606  
2902.000000	1.470197  
2900.000000	1.468954  
2898.000000	1.464442  
2896.000000	1.465717  
2894.000000	1.465354  
2892.000000	1.462428  
2890.000000	1.459101  
2888.000000	1.460319  
2886.000000	1.459343  
2884.000000	1.454554  
2882.000000	1.454808  
2880.000000	1.458434  
2878.000000	1.460212  
2876.000000	1.459224  
2874.000000	1.459474  
2872.000000	1.458622  
2870.000000	1.457160  
2868.000000	1.456929  
2866.000000	1.459355  
2864.000000	1.457935  
2862.000000	1.457724  
2860.000000	1.458366  
2858.000000	1.456647  
2856.000000	1.457293  
2854.000000	1.456220  
2852.000000	1.457834  
2850.000000	1.459063  
2848.000000	1.458991  
2846.000000	1.455280  
2844.000000	1.450532  
2842.000000	1.450720  
2840.000000	1.452571  
2838.000000	1.450182  
2836.000000	1.448268  
2834.000000	1.450132  
2832.000000	1.447681  
2830.000000	1.446985  
2828.000000	1.446893  
2826.000000	1.446664  
2824.000000	1.447052  
2822.000000	1.443996  
2820.000000	1.444866  
2818.000000	1.446675  
2816.000000	1.449132  
2814.000000	1.451401  
2812.000000	1.450141  
2810.000000	1.448117  
2808.000000	1.445250  
2806.000000	1.442227  
2804.000000	1.440002  
2802.000000	1.439099  
2800.000000	1.437330  
2798.000000	1.439880  
2796.000000	1.442628  
2794.000000	1.440347  
2792.000000	1.441044  
2790.000000	1.441099  
2788.000000	1.438755  
2786.000000	1.438564  
2784.000000	1.439620  
2782.000000	1.439806  
2780.000000	1.441937  
2778.000000	1.443562  
2776.000000	1.444811  
2774.000000	1.445201  
2772.000000	1.443332  
2770.000000	1.441717  
2768.000000	1.439680  
2766.000000	1.439486  
2764.000000	1.438690  
2762.000000	1.437957  
2760.000000	1.438542  
2758.000000	1.441794  
2756.000000	1.443530  
2754.000000	1.440479  
2752.000000	1.437917  
2750.000000	1.435226  
2748.000000	1.434693  
2746.000000	1.434696  
2744.000000	1.436543  
2742.000000	1.439213  
2740.000000	1.438394  
2738.000000	1.437730  
2736.000000	1.439267  
2734.000000	1.440713  
2732.000000	1.435943  
2730.000000	1.432473  
2728.000000	1.429833  
2726.000000	1.429465  
2724.000000	1.431390  
2722.000000	1.432799  
2720.000000	1.433610  
2718.000000	1.432656  
2716.000000	1.432367  
2714.000000	1.430212  
2712.000000	1.429496  
2710.000000	1.428662  
2708.000000	1.427815  
2706.000000	1.427704  
2704.000000	1.425495  
2702.000000	1.425428  
2700.000000	1.428292  
2698.000000	1.433006  
2696.000000	1.434953  
2694.000000	1.434722  
2692.000000	1.432073  
2690.000000	1.425646  
2688.000000	1.420103  
2686.000000	1.420815  
2684.000000	1.424635  
2682.000000	1.425409  
2680.000000	1.425321  
2678.000000	1.425748  
2676.000000	1.425244  
2674.000000	1.425641  
2672.000000	1.424864  
2670.000000	1.422252  
2668.000000	1.423277  
2666.000000	1.425464  
2664.000000	1.423261  
2662.000000	1.421954  
2660.000000	1.421691  
2658.000000	1.423173  
2656.000000	1.421104  
2654.000000	1.417910  
2652.000000	1.418882  
2650.000000	1.418214  
2648.000000	1.417160  
2646.000000	1.417439  
2644.000000	1.418705  
2642.000000	1.416827  
2640.000000	1.414925  
2638.000000	1.414589  
2636.000000	1.415308  
2634.000000	1.416084  
2632.000000	1.414495  
2630.000000	1.412472  
2628.000000	1.412700  
2626.000000	1.414033  
2624.000000	1.413185  
2622.000000	1.413396  
2620.000000	1.413820  
2618.000000	1.416417  
2616.000000	1.414476  
2614.000000	1.412328  
2612.000000	1.411854  
2610.000000	1.409633  
2608.000000	1.410949  
2606.000000	1.411902  
2604.000000	1.413786  
2602.000000	1.415025  
2600.000000	1.414476  
2598.000000	1.411384  
2596.000000	1.407591  
2594.000000	1.408131  
2592.000000	1.410437  
2590.000000	1.408465  
2588.000000	1.403376  
2586.000000	1.403434  
2584.000000	1.406137  
2582.000000	1.406311  
2580.000000	1.405974  
2578.000000	1.406454  
2576.000000	1.406773  
2574.000000	1.406087  
2572.000000	1.404941  
2570.000000	1.402753  
2568.000000	1.403505  
2566.000000	1.405368  
2564.000000	1.402905  
2562.000000	1.402708  
2560.000000	1.404494  
2558.000000	1.403867  
2556.000000	1.402729  
2554.000000	1.403091  
2552.000000	1.402274  
2550.000000	1.402622  
2548.000000	1.401757  
2546.000000	1.400984  
2544.000000	1.403012  
2542.000000	1.403046  
2540.000000	1.400768  
2538.000000	1.399574  
2536.000000	1.398842  
2534.000000	1.396604  
2532.000000	1.396410  
2530.000000	1.396932  
2528.000000	1.398339  
2526.000000	1.400154  
2524.000000	1.399683  
2522.000000	1.398746  
2520.000000	1.396593  
2518.000000	1.395220  
2516.000000	1.395980  
2514.000000	1.396201  
2512.000000	1.396356  
2510.000000	1.396950  
2508.000000	1.399540  
2506.000000	1.399571  
2504.000000	1.394418  
2502.000000	1.389447  
2500.000000	1.387467  
2498.000000	1.386732  
2496.000000	1.389118  
2494.000000	1.394010  
2492.000000	1.396346  
2490.000000	1.395650  
2488.000000	1.393892  
2486.000000	1.392182  
2484.000000	1.390273  
2482.000000	1.388879  
2480.000000	1.385412  
2478.000000	1.384049  
2476.000000	1.385254  
2474.000000	1.386914  
2472.000000	1.389762  
2470.000000	1.388092  
2468.000000	1.386142  
2466.000000	1.386836  
2464.000000	1.385304  
2462.000000	1.381514  
2460.000000	1.381265  
2458.000000	1.380754  
2456.000000	1.380337  
2454.000000	1.383593  
2452.000000	1.383971  
2450.000000	1.383197  
2448.000000	1.385158  
2446.000000	1.384759  
2444.000000	1.379435  
2442.000000	1.377732  
2440.000000	1.377149  
2438.000000	1.376991  
2436.000000	1.377779  
2434.000000	1.379128  
2432.000000	1.381240  
2430.000000	1.383065  
2428.000000	1.383042  
2426.000000	1.380399  
2424.000000	1.377621  
2422.000000	1.376624  
2420.000000	1.378286  
2418.000000	1.379914  
2416.000000	1.378721  
2414.000000	1.377166  
2412.000000	1.376592  
2410.000000	1.380456  
2408.000000	1.381006  
2406.000000	1.379170  
2404.000000	1.378907  
2402.000000	1.375484  
2400.000000	1.373828  
2398.000000	1.375947  
2396.000000	1.378261  
2394.000000	1.375787  
2392.000000	1.372013  
2390.000000	1.371983  
2388.000000	1.374203  
2386.000000	1.373804  
2384.000000	1.369048  
2382.000000	1.369540  
2380.000000	1.376895  
2378.000000	1.383130  
2376.000000	1.385649  
2374.000000	1.387925  
2372.000000	1.392420  
2370.000000	1.396826  
2368.000000	1.398826  
2366.000000	1.397756  
2364.000000	1.395084  
2362.000000	1.397606  
2360.000000	1.402549  
2358.000000	1.400594  
2356.000000	1.397710  
2354.000000	1.391111  
2352.000000	1.385349  
2350.000000	1.378578  
2348.000000	1.375273  
2346.000000	1.378209  
2344.000000	1.378620  
2342.000000	1.382247  
2340.000000	1.387785  
2338.000000	1.390505  
2336.000000	1.387017  
2334.000000	1.387664  
2332.000000	1.388915  
2330.000000	1.384189  
2328.000000	1.382290  
2326.000000	1.380546  
2324.000000	1.378783  
2322.000000	1.380837  
2320.000000	1.383302  
2318.000000	1.381751  
2316.000000	1.379371  
2314.000000	1.375843  
2312.000000	1.371209  
2310.000000	1.369544  
2308.000000	1.365343  
2306.000000	1.361999  
2304.000000	1.361939  
2302.000000	1.363092  
2300.000000	1.362774  
2298.000000	1.363383  
2296.000000	1.364252  
2294.000000	1.361461  
2292.000000	1.359130  
2290.000000	1.357424  
2288.000000	1.356174  
2286.000000	1.357334  
2284.000000	1.359599  
2282.000000	1.359180  
2280.000000	1.357351  
2278.000000	1.356011  
2276.000000	1.356108  
2274.000000	1.357759  
2272.000000	1.357153  
2270.000000	1.355164  
2268.000000	1.354346  
2266.000000	1.354145  
2264.000000	1.353492  
2262.000000	1.353749  
2260.000000	1.354639  
2258.000000	1.354252  
2256.000000	1.353663  
2254.000000	1.352633  
2252.000000	1.352015  
2250.000000	1.350860  
2248.000000	1.350586  
2246.000000	1.351585  
2244.000000	1.351887  
2242.000000	1.351441  
2240.000000	1.351134  
2238.000000	1.351283  
2236.000000	1.350846  
2234.000000	1.349811  
2232.000000	1.347475  
2230.000000	1.346662  
2228.000000	1.346388  
2226.000000	1.347279  
2224.000000	1.348398  
2222.000000	1.348649  
2220.000000	1.349774  
2218.000000	1.348344  
2216.000000	1.348333  
2214.000000	1.348978  
2212.000000	1.348181  
2210.000000	1.347362  
2208.000000	1.345635  
2206.000000	1.347092  
2204.000000	1.349130  
2202.000000	1.349320  
2200.000000	1.348137  
2198.000000	1.346547  
2196.000000	1.343958  
2194.000000	1.343666  
2192.000000	1.345243  
2190.000000	1.346526  
2188.000000	1.347733  
2186.000000	1.346540  
2184.000000	1.346630  
2182.000000	1.344251  
2180.000000	1.344677  
2178.000000	1.345449  
2176.000000	1.344533  
2174.000000	1.344478  
2172.000000	1.344892  
2170.000000	1.346331  
2168.000000	1.347897  
2166.000000	1.351711  
2164.000000	1.354566  
2162.000000	1.358777  
2160.000000	1.363974  
2158.000000	1.367177  
2156.000000	1.373353  
2154.000000	1.383711  
2152.000000	1.395755  
2150.000000	1.410387  
2148.000000	1.426096  
2146.000000	1.439079  
2144.000000	1.451106  
2142.000000	1.459665  
2140.000000	1.461294  
2138.000000	1.460364  
2136.000000	1.459784  
2134.000000	1.458786  
2132.000000	1.457760  
2130.000000	1.460818  
2128.000000	1.469427  
2126.000000	1.484189  
2124.000000	1.495636  
2122.000000	1.505176  
2120.000000	1.519831  
2118.000000	1.536214  
2116.000000	1.549744  
2114.000000	1.558351  
2112.000000	1.564192  
2110.000000	1.562404  
2108.000000	1.559672  
2106.000000	1.559638  
2104.000000	1.553687  
2102.000000	1.544925  
2100.000000	1.535684  
2098.000000	1.529557  
2096.000000	1.525941  
2094.000000	1.529357  
2092.000000	1.539598  
2090.000000	1.550880  
2088.000000	1.553206  
2086.000000	1.549480  
2084.000000	1.540995  
2082.000000	1.533804  
2080.000000	1.531626  
2078.000000	1.522037  
2076.000000	1.508048  
2074.000000	1.493656  
2072.000000	1.476317  
2070.000000	1.454572  
2068.000000	1.432104  
2066.000000	1.411416  
2064.000000	1.390645  
2062.000000	1.371774  
2060.000000	1.355251  
2058.000000	1.340180  
2056.000000	1.330782  
2054.000000	1.325860  
2052.000000	1.322486  
2050.000000	1.318139  
2048.000000	1.313850  
2046.000000	1.311535  
2044.000000	1.311514  
2042.000000	1.311060  
2040.000000	1.309573  
2038.000000	1.307025  
2036.000000	1.307317  
2034.000000	1.308712  
2032.000000	1.307418  
2030.000000	1.306284  
2028.000000	1.304181  
2026.000000	1.301007  
2024.000000	1.299170  
2022.000000	1.299546  
2020.000000	1.299057  
2018.000000	1.299215  
2016.000000	1.296904  
2014.000000	1.295683  
2012.000000	1.297283  
2010.000000	1.296041  
2008.000000	1.298099  
2006.000000	1.299787  
2004.000000	1.297834  
2002.000000	1.295697  
2000.000000	1.294935  
1998.000000	1.293585  
1996.000000	1.292688  
1994.000000	1.293646  
1992.000000	1.293925  
1990.000000	1.291678  
1988.000000	1.288974  
1986.000000	1.287942  
1984.000000	1.287523  
1982.000000	1.288175  
1980.000000	1.286951  
1978.000000	1.285730  
1976.000000	1.286168  
1974.000000	1.285864  
1972.000000	1.286915  
1970.000000	1.286919  
1968.000000	1.287282  
1966.000000	1.284899  
1964.000000	1.280401  
1962.000000	1.277015  
1960.000000	1.277717  
1958.000000	1.280537  
1956.000000	1.280108  
1954.000000	1.279813  
1952.000000	1.279458  
1950.000000	1.276641  
1948.000000	1.275857  
1946.000000	1.275618  
1944.000000	1.275409  
1942.000000	1.276023  
1940.000000	1.274197  
1938.000000	1.274133  
1936.000000	1.275294  
1934.000000	1.273794  
1932.000000	1.271520  
1930.000000	1.269521  
1928.000000	1.269174  
1926.000000	1.268372  
1924.000000	1.267900  
1922.000000	1.267902  
1920.000000	1.265127  
1918.000000	1.266010  
1916.000000	1.265041  
1914.000000	1.264854  
1912.000000	1.265363  
1910.000000	1.264509  
1908.000000	1.262888  
1906.000000	1.261531  
1904.000000	1.263239  
1902.000000	1.262005  
1900.000000	1.259021  
1898.000000	1.259354  
1896.000000	1.260909  
1894.000000	1.259689  
1892.000000	1.256356  
1890.000000	1.257201  
1888.000000	1.257627  
1886.000000	1.258088  
1884.000000	1.258142  
1882.000000	1.255744  
1880.000000	1.254214  
1878.000000	1.254869  
1876.000000	1.253787  
1874.000000	1.250873  
1872.000000	1.249356  
1870.000000	1.252135  
1868.000000	1.255330  
1866.000000	1.252452  
1864.000000	1.250366  
1862.000000	1.249229  
1860.000000	1.249661  
1858.000000	1.249016  
1856.000000	1.247413  
1854.000000	1.247444  
1852.000000	1.247607  
1850.000000	1.247003  
1848.000000	1.244718  
1846.000000	1.239888  
1844.000000	1.242350  
1842.000000	1.244116  
1840.000000	1.240922  
1838.000000	1.241108  
1836.000000	1.241642  
1834.000000	1.236630  
1832.000000	1.232587  
1830.000000	1.234866  
1828.000000	1.235620  
1826.000000	1.234444  
1824.000000	1.235533  
1822.000000	1.233173  
1820.000000	1.231296  
1818.000000	1.231391  
1816.000000	1.231595  
1814.000000	1.230805  
1812.000000	1.229857  
1810.000000	1.229781  
1808.000000	1.226977  
1806.000000	1.224987  
1804.000000	1.224133  
1802.000000	1.223316  
1800.000000	1.226425  
1798.000000	1.226902  
1796.000000	1.224205  
1794.000000	1.220773  
1792.000000	1.223214  
1790.000000	1.223332  
1788.000000	1.220756  
1786.000000	1.220992  
1784.000000	1.221173  
1782.000000	1.217738  
1780.000000	1.217265  
1778.000000	1.218226  
1776.000000	1.215961  
1774.000000	1.214458  
1772.000000	1.217749  
1770.000000	1.217154  
1768.000000	1.214983  
1766.000000	1.211914  
1764.000000	1.209878  
1762.000000	1.212257  
1760.000000	1.211117  
1758.000000	1.210994  
1756.000000	1.214318  
1754.000000	1.208805  
1752.000000	1.206552  
1750.000000	1.210511  
1748.000000	1.213250  
1746.000000	1.211532  
1744.000000	1.210133  
1742.000000	1.210164  
1740.000000	1.210026  
1738.000000	1.206987  
1736.000000	1.201131  
1734.000000	1.208726  
1732.000000	1.209730  
1730.000000	1.206543  
1728.000000	1.204814  
1726.000000	1.201956  
1724.000000	1.203173  
1722.000000	1.200700  
1720.000000	1.196861  
1718.000000	1.200722  
1716.000000	1.203775  
1714.000000	1.202110  
1712.000000	1.198202  
1710.000000	1.195191  
1708.000000	1.193304  
1706.000000	1.196325  
1704.000000	1.193497  
1702.000000	1.189942  
1700.000000	1.198960  
1698.000000	1.191389  
1696.000000	1.193334  
1694.000000	1.191159  
1692.000000	1.183410  
1690.000000	1.183017  
1688.000000	1.180818  
1686.000000	1.178046  
1684.000000	1.191432  
1682.000000	1.189783  
1680.000000	1.184117  
1678.000000	1.180391  
1676.000000	1.179273  
1674.000000	1.179764  
1672.000000	1.175450  
1670.000000	1.179107  
1668.000000	1.179949  
1666.000000	1.174289  
1664.000000	1.172592  
1662.000000	1.174929  
1660.000000	1.172435  
1658.000000	1.166939  
1656.000000	1.160121  
1654.000000	1.168173  
1652.000000	1.180095  
1650.000000	1.166684  
1648.000000	1.165280  
1646.000000	1.170894  
1644.000000	1.166031  
1642.000000	1.163175  
1640.000000	1.161781  
1638.000000	1.157730  
1636.000000	1.162976  
1634.000000	1.165476  
1632.000000	1.159642  
1630.000000	1.155985  
1628.000000	1.158654  
1626.000000	1.158683  
1624.000000	1.157997  
1622.000000	1.157680  
1620.000000	1.152877  
1618.000000	1.152637  
1616.000000	1.160124  
1614.000000	1.156118  
1612.000000	1.152356  
1610.000000	1.152269  
1608.000000	1.151473  
1606.000000	1.150939  
1604.000000	1.149330  
1602.000000	1.148401  
1600.000000	1.147139  
1598.000000	1.145459  
1596.000000	1.143845  
1594.000000	1.143685  
1592.000000	1.142952  
1590.000000	1.141026  
1588.000000	1.140170  
1586.000000	1.139319  
1584.000000	1.137894  
1582.000000	1.137169  
1580.000000	1.135514  
1578.000000	1.132687  
1576.000000	1.138803  
1574.000000	1.137559  
1572.000000	1.130497  
1570.000000	1.133999  
1568.000000	1.135442  
1566.000000	1.132541  
1564.000000	1.130359  
1562.000000	1.123390  
1560.000000	1.129531  
1558.000000	1.141167  
1556.000000	1.131830  
1554.000000	1.129597  
1552.000000	1.126520  
1550.000000	1.124601  
1548.000000	1.123543  
1546.000000	1.121016  
1544.000000	1.120384  
1542.000000	1.121299  
1540.000000	1.134347  
1538.000000	1.129221  
1536.000000	1.114506  
1534.000000	1.113512  
1532.000000	1.115796  
1530.000000	1.113326  
1528.000000	1.112109  
1526.000000	1.113540  
1524.000000	1.109859  
1522.000000	1.110192  
1520.000000	1.113578  
1518.000000	1.110056  
1516.000000	1.111306  
1514.000000	1.106829  
1512.000000	1.103625  
1510.000000	1.099901  
1508.000000	1.105533  
1506.000000	1.117314  
1504.000000	1.106045  
1502.000000	1.097638  
1500.000000	1.095610  
1498.000000	1.097326  
1496.000000	1.103086  
1494.000000	1.101031  
1492.000000	1.097799  
1490.000000	1.102138  
1488.000000	1.101367  
1486.000000	1.095957  
1484.000000	1.090199  
1482.000000	1.088859  
1480.000000	1.089299  
1478.000000	1.088074  
1476.000000	1.088876  
1474.000000	1.091030  
1472.000000	1.096678  
1470.000000	1.091731  
1468.000000	1.085715  
1466.000000	1.084956  
1464.000000	1.088117  
1462.000000	1.086020  
1460.000000	1.082435  
1458.000000	1.089776  
1456.000000	1.096327  
1454.000000	1.087981  
1452.000000	1.082530  
1450.000000	1.079922  
1448.000000	1.079478  
1446.000000	1.078178  
1444.000000	1.075063  
1442.000000	1.072062  
1440.000000	1.068107  
1438.000000	1.067266  
1436.000000	1.072748  
1434.000000	1.068402  
1432.000000	1.062622  
1430.000000	1.062098  
1428.000000	1.060586  
1426.000000	1.057656  
1424.000000	1.056019  
1422.000000	1.051239  
1420.000000	1.050277  
1418.000000	1.053437  
1416.000000	1.051257  
1414.000000	1.047923  
1412.000000	1.044651  
1410.000000	1.043151  
1408.000000	1.042368  
1406.000000	1.040603  
1404.000000	1.039563  
1402.000000	1.035722  
1400.000000	1.033015  
1398.000000	1.032854  
1396.000000	1.033537  
1394.000000	1.034834  
1392.000000	1.031131  
1390.000000	1.026785  
1388.000000	1.025077  
1386.000000	1.024574  
1384.000000	1.022046  
1382.000000	1.019893  
1380.000000	1.018755  
1378.000000	1.017088  
1376.000000	1.014785  
1374.000000	1.014942  
1372.000000	1.012983  
1370.000000	1.008425  
1368.000000	1.006772  
1366.000000	1.004544  
1364.000000	1.002375  
1362.000000	1.002842  
1360.000000	1.000960  
1358.000000	0.999206  
1356.000000	0.997425  
1354.000000	0.994963  
1352.000000	0.992377  
1350.000000	0.991785  
1348.000000	0.990264  
1346.000000	0.988020  
1344.000000	0.985631  
1342.000000	0.984306  
1340.000000	0.985009  
1338.000000	0.983639  
1336.000000	0.979899  
1334.000000	0.977090  
1332.000000	0.976642  
1330.000000	0.976385  
1328.000000	0.975410  
1326.000000	0.973512  
1324.000000	0.971505  
1322.000000	0.970109  
1320.000000	0.969633  
1318.000000	0.968663  
1316.000000	0.965801  
1314.000000	0.963784  
1312.000000	0.963111  
1310.000000	0.961245  
1308.000000	0.958894  
1306.000000	0.957705  
1304.000000	0.956262  
1302.000000	0.953529  
1300.000000	0.952968  
1298.000000	0.951860  
1296.000000	0.949285  
1294.000000	0.947371  
1292.000000	0.945229  
1290.000000	0.942944  
1288.000000	0.941057  
1286.000000	0.938388  
1284.000000	0.935368  
1282.000000	0.934427  
1280.000000	0.933625  
1278.000000	0.931692  
1276.000000	0.928954  
1274.000000	0.926351  
1272.000000	0.924002  
1270.000000	0.921927  
1268.000000	0.920212  
1266.000000	0.918742  
1264.000000	0.917717  
1262.000000	0.915592  
1260.000000	0.912977  
1258.000000	0.910448  
1256.000000	0.906816  
1254.000000	0.904409  
1252.000000	0.903600  
1250.000000	0.902156  
1248.000000	0.899144  
1246.000000	0.897025  
1244.000000	0.895133  
1242.000000	0.893428  
1240.000000	0.890670  
1238.000000	0.887972  
1236.000000	0.886808  
1234.000000	0.884649  
1232.000000	0.882042  
1230.000000	0.879769  
1228.000000	0.878275  
1226.000000	0.877035  
1224.000000	0.875571  
1222.000000	0.872969  
1220.000000	0.869836  
1218.000000	0.867709  
1216.000000	0.865263  
1214.000000	0.862208  
1212.000000	0.859612  
1210.000000	0.858069  
1208.000000	0.856925  
1206.000000	0.856615  
1204.000000	0.854592  
1202.000000	0.852015  
1200.000000	0.850369  
1198.000000	0.848014  
1196.000000	0.845952  
1194.000000	0.842929  
1192.000000	0.840997  
1190.000000	0.839069  
1188.000000	0.836569  
1186.000000	0.834629  
1184.000000	0.833355  
1182.000000	0.831916  
1180.000000	0.829228  
1178.000000	0.826338  
1176.000000	0.824047  
1174.000000	0.822048  
1172.000000	0.819534  
1170.000000	0.817329  
1168.000000	0.815547  
1166.000000	0.814033  
1164.000000	0.812073  
1162.000000	0.809499  
1160.000000	0.806524  
1158.000000	0.804017  
1156.000000	0.802186  
1154.000000	0.799451  
1152.000000	0.797367  
1150.000000	0.795402  
1148.000000	0.793176  
1146.000000	0.791261  
1144.000000	0.788693  
1142.000000	0.786495  
1140.000000	0.784339  
1138.000000	0.782222  
1136.000000	0.779407  
1134.000000	0.777598  
1132.000000	0.776398  
1130.000000	0.774087  
1128.000000	0.771534  
1126.000000	0.769160  
1124.000000	0.767970  
1122.000000	0.766254  
1120.000000	0.763645  
1118.000000	0.761440  
1116.000000	0.759715  
1114.000000	0.758094  
1112.000000	0.756455  
1110.000000	0.754208  
1108.000000	0.751333  
1106.000000	0.749349  
1104.000000	0.747308  
1102.000000	0.744863  
1100.000000	0.742234  
1098.000000	0.739809  
1096.000000	0.737694  
1094.000000	0.734921  
1092.000000	0.731688  
1090.000000	0.728506  
1088.000000	0.726037  
1086.000000	0.723305  
1084.000000	0.720379  
1082.000000	0.716622  
1080.000000	0.713556  
1078.000000	0.710375  
1076.000000	0.707909  
1074.000000	0.706102  
1072.000000	0.704376  
1070.000000	0.702429  
1068.000000	0.699718  
1066.000000	0.696147  
1064.000000	0.692377  
1062.000000	0.689781  
1060.000000	0.687446  
1058.000000	0.684799  
1056.000000	0.681663  
1054.000000	0.678066  
1052.000000	0.676163  
1050.000000	0.674963  
1048.000000	0.672393  
1046.000000	0.668664  
1044.000000	0.665456  
1042.000000	0.662772  
1040.000000	0.660214  
1038.000000	0.657698  
1036.000000	0.655333  
1034.000000	0.653177  
1032.000000	0.650469  
1030.000000	0.647783  
1028.000000	0.644657  
1026.000000	0.641649  
1024.000000	0.638516  
1022.000000	0.635395  
1020.000000	0.632291  
1018.000000	0.629172  
1016.000000	0.626573  
1014.000000	0.622857  
1012.000000	0.619161  
1010.000000	0.615896  
1008.000000	0.612300  
1006.000000	0.608676  
1004.000000	0.606024  
1002.000000	0.603895  
1000.000000	0.601300  
998.000000	 0.599063  
996.000000	 0.596065  
994.000000	 0.593023  
992.000000	 0.590850  
990.000000	 0.588181  
988.000000	 0.585095  
986.000000	 0.582856  
984.000000	 0.580615  
982.000000	 0.577413  
980.000000	 0.574824  
978.000000	 0.572439  
976.000000	 0.569649  
974.000000	 0.566334  
972.000000	 0.563673  
970.000000	 0.561330  
968.000000	 0.558364  
966.000000	 0.554839  
964.000000	 0.551784  
962.000000	 0.549335  
960.000000	 0.546731  
958.000000	 0.544046  
956.000000	 0.541698  
954.000000	 0.539865  
952.000000	 0.537629  
950.000000	 0.534385  
948.000000	 0.531055  
946.000000	 0.528118  
944.000000	 0.525810  
942.000000	 0.523695  
940.000000	 0.521884  
938.000000	 0.520012  
936.000000	 0.518563  
934.000000	 0.517131  
932.000000	 0.515185  
930.000000	 0.514587  
928.000000	 0.515450  
926.000000	 0.519003  
924.000000	 0.527301  
922.000000	 0.543221  
920.000000	 0.567931  
918.000000	 0.600077  
916.000000	 0.633038  
914.000000	 0.660786  
912.000000	 0.683275  
910.000000	 0.702144  
908.000000	 0.719680  
906.000000	 0.731397  
904.000000	 0.734099  
902.000000	 0.732752  
900.000000	 0.727562  
898.000000	 0.715532  
896.000000	 0.696966  
894.000000	 0.672955  
892.000000	 0.643977  
890.000000	 0.612269  
888.000000	 0.579338  
886.000000	 0.549716  
884.000000	 0.526262  
882.000000	 0.507935  
880.000000	 0.493515  
878.000000	 0.482616  
876.000000	 0.474830  
874.000000	 0.467959  
872.000000	 0.462728  
870.000000	 0.458033  
868.000000	 0.454378  
866.000000	 0.451526  
864.000000	 0.449441  
862.000000	 0.447529  
860.000000	 0.445115  
858.000000	 0.441864  
856.000000	 0.437178  
854.000000	 0.432005  
852.000000	 0.427282  
850.000000	 0.423540  
848.000000	 0.420014  
846.000000	 0.416534  
844.000000	 0.413627  
842.000000	 0.410902  
840.000000	 0.408339  
838.000000	 0.405987  
836.000000	 0.403175  
834.000000	 0.399543  
832.000000	 0.396729  
830.000000	 0.394657  
828.000000	 0.392858  
826.000000	 0.390822  
824.000000	 0.388438  
822.000000	 0.386421  
820.000000	 0.385005  
818.000000	 0.384294  
816.000000	 0.382948  
814.000000	 0.381697  
812.000000	 0.379776  
810.000000	 0.377106  
808.000000	 0.373476  
806.000000	 0.369323  
804.000000	 0.365241  
802.000000	 0.361094  
800.000000	 0.357382  
798.000000	 0.353200  
796.000000	 0.349384  
794.000000	 0.346239  
792.000000	 0.342756  
790.000000	 0.339251  
788.000000	 0.336889  
786.000000	 0.334684  
784.000000	 0.331521  
782.000000	 0.328047  
780.000000	 0.324446  
778.000000	 0.321262  
776.000000	 0.318217  
774.000000	 0.315023  
772.000000	 0.312322  
770.000000	 0.309285  
768.000000	 0.306084  
766.000000	 0.303281  
764.000000	 0.300655  
762.000000	 0.297417  
760.000000	 0.294909  
758.000000	 0.292430  
756.000000	 0.289220  
754.000000	 0.285918  
752.000000	 0.283291  
750.000000	 0.281599  
748.000000	 0.280750  
746.000000	 0.281121  
744.000000	 0.282268  
742.000000	 0.285015  
740.000000	 0.290575  
738.000000	 0.297181  
736.000000	 0.302615  
734.000000	 0.306902  
732.000000	 0.310740  
730.000000	 0.315856  
728.000000	 0.324333  
726.000000	 0.334361  
724.000000	 0.343712  
722.000000	 0.352840  
720.000000	 0.360966  
718.000000	 0.366920  
716.000000	 0.371176  
714.000000	 0.375343  
712.000000	 0.379312  
710.000000	 0.383667  
708.000000	 0.388527  
706.000000	 0.393912  
704.000000	 0.399493  
702.000000	 0.407727  
700.000000	 0.418349  
698.000000	 0.431252  
696.000000	 0.447377  
694.000000	 0.464246  
692.000000	 0.482339  
690.000000	 0.503464  
688.000000	 0.526063  
686.000000	 0.549366  
684.000000	 0.571307  
682.000000	 0.590503  
680.000000	 0.608406  
678.000000	 0.625878  
676.000000	 0.641896  
674.000000	 0.655474  
672.000000	 0.665215  
670.000000	 0.676322  
668.000000	 0.685436  
666.000000	 0.674074  
664.000000	 0.659791  
662.000000	 0.648549  
660.000000	 0.639017  
658.000000	 0.629129  
656.000000	 0.619532  
654.000000	 0.610585  
652.000000	 0.605225  
650.000000	 0.604231  
648.000000	 0.607312  
646.000000	 0.613275  
644.000000	 0.620026  
642.000000	 0.630581  
640.000000	 0.642564  
638.000000	 0.655548  
636.000000	 0.670017  
634.000000	 0.686005  
632.000000	 0.701313  
630.000000	 0.712887  
628.000000	 0.717284  
626.000000	 0.707443  
624.000000	 0.679290  
622.000000	 0.635467  
620.000000	 0.585027  
618.000000	 0.532785  
616.000000	 0.481233  
614.000000	 0.434145  
612.000000	 0.394347  
610.000000	 0.361008  
608.000000	 0.332635  
606.000000	 0.306769  
604.000000	 0.283592  
602.000000	 0.265465  
600.000000	 0.251543  
598.000000	 0.240169  
596.000000	 0.228917  
594.000000	 0.218613  
592.000000	 0.210989  
590.000000	 0.204165  
588.000000	 0.199069  
586.000000	 0.194054  
584.000000	 0.189397  
582.000000	 0.184656  
580.000000	 0.180227  
578.000000	 0.174853  
576.000000	 0.168284  
574.000000	 0.162459  
572.000000	 0.156358  
570.000000	 0.149914  
568.000000	 0.144352  
566.000000	 0.139984  
564.000000	 0.136355  
562.000000	 0.132124  
560.000000	 0.126790  
558.000000	 0.122074  
556.000000	 0.118491  
554.000000	 0.115697  
552.000000	 0.113855  
550.000000	 0.112387  
548.000000	 0.110718  
546.000000	 0.107440  
544.000000	 0.102354  
542.000000	 0.097741  
540.000000	 0.093903  
538.000000	 0.091034  
536.000000	 0.087814  
534.000000	 0.084008  
532.000000	 0.079992  
530.000000	 0.076945  
528.000000	 0.073958  
526.000000	 0.070641  
524.000000	 0.068052  
522.000000	 0.066469  
520.000000	 0.065251  
518.000000	 0.064765  
516.000000	 0.065817  
514.000000	 0.066650  
512.000000	 0.066637  
510.000000	 0.065702  
508.000000	 0.063739  
506.000000	 0.062199  
504.000000	 0.060514  
502.000000	 0.058463  
500.000000	 0.055812  
498.000000	 0.053294  
496.000000	 0.051652  
494.000000	 0.049463  
492.000000	 0.046529  
490.000000	 0.044596  
488.000000	 0.043160  
486.000000	 0.041151  
484.000000	 0.038959  
482.000000	 0.035700  
480.000000	 0.033009  
478.000000	 0.030116  
476.000000	 0.027422  
474.000000	 0.024051  
472.000000	 0.021082  
470.000000	 0.019006  
468.000000	 0.016123  
466.000000	 0.012574  
464.000000	 0.008485  
462.000000	 0.004303  
460.000000	 0.000172  
458.000000	 -0.002914 
456.000000	 -0.004317 
454.000000	 -0.005093 
452.000000	 -0.006776 
450.000000	 -0.009364 

