PE IR       SUBTECH     SPECTRUM    ASCII       PEDS        1.60        
  -1
1911B16B.ASC
07/12/03
19:50:45.00
07/12/03
18:00:22.00
koro/arcerd

450.000000
16









1004,02.19S
DTGS
MIR
KBR
52208
0.300000

4.000000
STRONG
RATIO
MAGNITUDE


DOUBLE SIDED
16
BIDIRECTIONAL
2




#HDR
-1
-1
#GR
CM-1
A
0.00000011920928955078
0.0
4400.000000
-2.000000
1976
8
2.265696
0.184534
#DATA
4400.000000	1.663450 
4398.000000	1.672194 
4396.000000	1.670285 
4394.000000	1.657933 
4392.000000	1.649325 
4390.000000	1.658098 
4388.000000	1.659004 
4386.000000	1.648813 
4384.000000	1.650023 
4382.000000	1.653538 
4380.000000	1.656335 
4378.000000	1.655552 
4376.000000	1.649191 
4374.000000	1.648451 
4372.000000	1.651343 
4370.000000	1.655782 
4368.000000	1.661096 
4366.000000	1.668694 
4364.000000	1.668752 
4362.000000	1.659921 
4360.000000	1.656096 
4358.000000	1.659169 
4356.000000	1.661480 
4354.000000	1.656950 
4352.000000	1.649912 
4350.000000	1.655613 
4348.000000	1.662688 
4346.000000	1.668192 
4344.000000	1.667259 
4342.000000	1.663212 
4340.000000	1.655276 
4338.000000	1.651775 
4336.000000	1.655866 
4334.000000	1.656082 
4332.000000	1.654420 
4330.000000	1.655009 
4328.000000	1.657326 
4326.000000	1.654874 
4324.000000	1.660768 
4322.000000	1.669830 
4320.000000	1.661323 
4318.000000	1.654775 
4316.000000	1.655763 
4314.000000	1.654626 
4312.000000	1.655913 
4310.000000	1.656913 
4308.000000	1.653464 
4306.000000	1.655210 
4304.000000	1.663159 
4302.000000	1.663155 
4300.000000	1.660015 
4298.000000	1.655875 
4296.000000	1.661414 
4294.000000	1.664300 
4292.000000	1.663560 
4290.000000	1.661680 
4288.000000	1.659420 
4286.000000	1.661471 
4284.000000	1.658994 
4282.000000	1.652542 
4280.000000	1.654481 
4278.000000	1.654490 
4276.000000	1.653244 
4274.000000	1.655341 
4272.000000	1.655337 
4270.000000	1.659694 
4268.000000	1.665243 
4266.000000	1.665382 
4264.000000	1.661461 
4262.000000	1.655285 
4260.000000	1.655435 
4258.000000	1.656612 
4256.000000	1.651798 
4254.000000	1.649884 
4252.000000	1.652886 
4250.000000	1.659150 
4248.000000	1.659448 
4246.000000	1.657279 
4244.000000	1.661285 
4242.000000	1.662678 
4240.000000	1.656809 
4238.000000	1.655416 
4236.000000	1.655913 
4234.000000	1.646997 
4232.000000	1.647640 
4230.000000	1.647401 
4228.000000	1.645159 
4226.000000	1.644570 
4224.000000	1.645827 
4222.000000	1.654654 
4220.000000	1.659528 
4218.000000	1.658480 
4216.000000	1.653352 
4214.000000	1.654602 
4212.000000	1.659429 
4210.000000	1.656983 
4208.000000	1.655777 
4206.000000	1.655257 
4204.000000	1.658990 
4202.000000	1.665626 
4200.000000	1.658716 
4198.000000	1.648566 
4196.000000	1.648578 
4194.000000	1.650847 
4192.000000	1.651533 
4190.000000	1.646712 
4188.000000	1.649815 
4186.000000	1.652360 
4184.000000	1.647011 
4182.000000	1.647052 
4180.000000	1.649399 
4178.000000	1.651213 
4176.000000	1.653949 
4174.000000	1.660565 
4172.000000	1.663617 
4170.000000	1.663727 
4168.000000	1.659008 
4166.000000	1.652979 
4164.000000	1.655721 
4162.000000	1.658169 
4160.000000	1.661219 
4158.000000	1.663365 
4156.000000	1.657637 
4154.000000	1.653627 
4152.000000	1.656842 
4150.000000	1.662112 
4148.000000	1.667548 
4146.000000	1.665765 
4144.000000	1.653986 
4142.000000	1.659916 
4140.000000	1.671688 
4138.000000	1.665655 
4136.000000	1.655014 
4134.000000	1.651227 
4132.000000	1.651705 
4130.000000	1.652137 
4128.000000	1.646630 
4126.000000	1.649496 
4124.000000	1.653613 
4122.000000	1.648165 
4120.000000	1.645722 
4118.000000	1.645004 
4116.000000	1.641666 
4114.000000	1.645383 
4112.000000	1.651019 
4110.000000	1.655697 
4108.000000	1.657590 
4106.000000	1.651649 
4104.000000	1.648666 
4102.000000	1.654883 
4100.000000	1.660541 
4098.000000	1.657863 
4096.000000	1.660991 
4094.000000	1.661148 
4092.000000	1.653827 
4090.000000	1.649598 
4088.000000	1.653314 
4086.000000	1.660138 
4084.000000	1.661708 
4082.000000	1.658037 
4080.000000	1.660053 
4078.000000	1.655758 
4076.000000	1.646969 
4074.000000	1.650319 
4072.000000	1.660153 
4070.000000	1.658999 
4068.000000	1.655173 
4066.000000	1.656509 
4064.000000	1.656692 
4062.000000	1.656748 
4060.000000	1.656551 
4058.000000	1.658966 
4056.000000	1.666072 
4054.000000	1.658141 
4052.000000	1.647305 
4050.000000	1.650870 
4048.000000	1.655866 
4046.000000	1.658112 
4044.000000	1.658919 
4042.000000	1.657058 
4040.000000	1.655337 
4038.000000	1.658584 
4036.000000	1.666038 
4034.000000	1.663488 
4032.000000	1.655065 
4030.000000	1.653319 
4028.000000	1.654602 
4026.000000	1.652658 
4024.000000	1.658131 
4022.000000	1.660167 
4020.000000	1.655468 
4018.000000	1.654514 
4016.000000	1.656391 
4014.000000	1.658650 
4012.000000	1.653142 
4010.000000	1.642997 
4008.000000	1.646487 
4006.000000	1.654944 
4004.000000	1.656035 
4002.000000	1.656157 
4000.000000	1.657364 
3998.000000	1.655187 
3996.000000	1.652156 
3994.000000	1.653422 
3992.000000	1.650694 
3990.000000	1.643516 
3988.000000	1.640506 
3986.000000	1.642688 
3984.000000	1.651840 
3982.000000	1.656176 
3980.000000	1.651139 
3978.000000	1.652100 
3976.000000	1.657091 
3974.000000	1.655047 
3972.000000	1.653403 
3970.000000	1.654850 
3968.000000	1.656222 
3966.000000	1.659117 
3964.000000	1.660276 
3962.000000	1.659023 
3960.000000	1.654659 
3958.000000	1.654294 
3956.000000	1.658221 
3954.000000	1.656194 
3952.000000	1.651566 
3950.000000	1.649954 
3948.000000	1.651937 
3946.000000	1.655875 
3944.000000	1.660086 
3942.000000	1.658782 
3940.000000	1.656077 
3938.000000	1.652602 
3936.000000	1.648271 
3934.000000	1.645850 
3932.000000	1.648993 
3930.000000	1.653370 
3928.000000	1.653645 
3926.000000	1.656251 
3924.000000	1.661456 
3922.000000	1.659892 
3920.000000	1.657331 
3918.000000	1.656457 
3916.000000	1.661172 
3914.000000	1.668679 
3912.000000	1.666269 
3910.000000	1.652411 
3908.000000	1.641847 
3906.000000	1.643452 
3904.000000	1.657674 
3902.000000	1.659325 
3900.000000	1.658650 
3898.000000	1.674820 
3896.000000	1.670493 
3894.000000	1.653137 
3892.000000	1.650130 
3890.000000	1.654009 
3888.000000	1.659987 
3886.000000	1.657058 
3884.000000	1.648142 
3882.000000	1.649945 
3880.000000	1.662103 
3878.000000	1.663727 
3876.000000	1.657797 
3874.000000	1.655730 
3872.000000	1.655112 
3870.000000	1.659888 
3868.000000	1.663298 
3866.000000	1.652914 
3864.000000	1.658758 
3862.000000	1.669269 
3860.000000	1.657839 
3858.000000	1.644990 
3856.000000	1.634842 
3854.000000	1.648910 
3852.000000	1.680745 
3850.000000	1.675511 
3848.000000	1.662993 
3846.000000	1.656532 
3844.000000	1.648799 
3842.000000	1.640786 
3840.000000	1.642442 
3838.000000	1.660086 
3836.000000	1.671581 
3834.000000	1.661965 
3832.000000	1.648610 
3830.000000	1.651292 
3828.000000	1.660162 
3826.000000	1.661323 
3824.000000	1.650893 
3822.000000	1.645315 
3820.000000	1.653599 
3818.000000	1.658023 
3816.000000	1.664922 
3814.000000	1.674003 
3812.000000	1.664668 
3810.000000	1.651464 
3808.000000	1.647824 
3806.000000	1.662697 
3804.000000	1.666884 
3802.000000	1.663527 
3800.000000	1.673798 
3798.000000	1.669781 
3796.000000	1.659108 
3794.000000	1.662307 
3792.000000	1.663947 
3790.000000	1.657981 
3788.000000	1.655786 
3786.000000	1.657213 
3784.000000	1.659330 
3782.000000	1.661058 
3780.000000	1.662835 
3778.000000	1.668361 
3776.000000	1.665070 
3774.000000	1.657721 
3772.000000	1.658815 
3770.000000	1.667893 
3768.000000	1.669409 
3766.000000	1.667447 
3764.000000	1.671362 
3762.000000	1.666418 
3760.000000	1.664903 
3758.000000	1.672656 
3756.000000	1.671843 
3754.000000	1.664429 
3752.000000	1.675673 
3750.000000	1.702269 
3748.000000	1.706588 
3746.000000	1.692104 
3744.000000	1.709691 
3742.000000	1.731995 
3740.000000	1.720510 
3738.000000	1.703162 
3736.000000	1.717453 
3734.000000	1.735725 
3732.000000	1.722844 
3730.000000	1.707902 
3728.000000	1.704078 
3726.000000	1.708547 
3724.000000	1.714541 
3722.000000	1.715981 
3720.000000	1.717734 
3718.000000	1.722636 
3716.000000	1.724894 
3714.000000	1.723670 
3712.000000	1.733024 
3710.000000	1.743856 
3708.000000	1.751359 
3706.000000	1.752195 
3704.000000	1.744166 
3702.000000	1.747100 
3700.000000	1.755290 
3698.000000	1.758578 
3696.000000	1.763252 
3694.000000	1.769636 
3692.000000	1.769192 
3690.000000	1.764930 
3688.000000	1.781104 
3686.000000	1.801091 
3684.000000	1.803218 
3682.000000	1.796454 
3680.000000	1.790120 
3678.000000	1.783650 
3676.000000	1.793278 
3674.000000	1.823968 
3672.000000	1.819031 
3670.000000	1.806711 
3668.000000	1.821641 
3666.000000	1.838335 
3664.000000	1.844385 
3662.000000	1.837665 
3660.000000	1.838257 
3658.000000	1.839335 
3656.000000	1.831305 
3654.000000	1.830380 
3652.000000	1.832177 
3650.000000	1.839285 
3648.000000	1.864976 
3646.000000	1.876975 
3644.000000	1.863021 
3642.000000	1.848281 
3640.000000	1.848660 
3638.000000	1.850075 
3636.000000	1.836157 
3634.000000	1.833417 
3632.000000	1.841378 
3630.000000	1.840646 
3628.000000	1.850698 
3626.000000	1.860904 
3624.000000	1.849152 
3622.000000	1.829764 
3620.000000	1.822039 
3618.000000	1.839922 
3616.000000	1.861047 
3614.000000	1.863006 
3612.000000	1.857625 
3610.000000	1.848894 
3608.000000	1.848770 
3606.000000	1.863891 
3604.000000	1.867937 
3602.000000	1.863339 
3600.000000	1.859808 
3598.000000	1.862417 
3596.000000	1.868036 
3594.000000	1.874355 
3592.000000	1.875201 
3590.000000	1.867136 
3588.000000	1.869989 
3586.000000	1.881706 
3584.000000	1.886726 
3582.000000	1.876002 
3580.000000	1.861830 
3578.000000	1.861671 
3576.000000	1.863429 
3574.000000	1.871527 
3572.000000	1.875216 
3570.000000	1.869376 
3568.000000	1.877170 
3566.000000	1.898376 
3564.000000	1.894687 
3562.000000	1.884260 
3560.000000	1.883816 
3558.000000	1.888532 
3556.000000	1.892782 
3554.000000	1.893559 
3552.000000	1.893681 
3550.000000	1.890877 
3548.000000	1.882282 
3546.000000	1.881288 
3544.000000	1.893502 
3542.000000	1.902840 
3540.000000	1.901344 
3538.000000	1.891659 
3536.000000	1.887660 
3534.000000	1.893835 
3532.000000	1.880171 
3530.000000	1.880619 
3528.000000	1.897288 
3526.000000	1.896455 
3524.000000	1.891740 
3522.000000	1.889294 
3520.000000	1.888877 
3518.000000	1.890362 
3516.000000	1.891651 
3514.000000	1.888652 
3512.000000	1.893664 
3510.000000	1.917164 
3508.000000	1.917096 
3506.000000	1.894508 
3504.000000	1.889109 
3502.000000	1.899500 
3500.000000	1.913858 
3498.000000	1.922536 
3496.000000	1.914265 
3494.000000	1.899418 
3492.000000	1.892790 
3490.000000	1.895142 
3488.000000	1.899065 
3486.000000	1.910270 
3484.000000	1.910944 
3482.000000	1.910043 
3480.000000	1.908438 
3478.000000	1.897811 
3476.000000	1.899024 
3474.000000	1.908782 
3472.000000	1.904673 
3470.000000	1.909900 
3468.000000	1.927571 
3466.000000	1.935158 
3464.000000	1.932952 
3462.000000	1.927177 
3460.000000	1.922631 
3458.000000	1.922744 
3456.000000	1.915661 
3454.000000	1.908631 
3452.000000	1.911392 
3450.000000	1.909698 
3448.000000	1.909311 
3446.000000	1.917507 
3444.000000	1.919326 
3442.000000	1.912034 
3440.000000	1.897264 
3438.000000	1.902981 
3436.000000	1.913645 
3434.000000	1.908858 
3432.000000	1.916369 
3430.000000	1.918905 
3428.000000	1.907283 
3426.000000	1.901509 
3424.000000	1.905488 
3422.000000	1.909303 
3420.000000	1.916327 
3418.000000	1.913399 
3416.000000	1.903950 
3414.000000	1.906689 
3412.000000	1.903685 
3410.000000	1.898082 
3408.000000	1.905272 
3406.000000	1.912973 
3404.000000	1.910750 
3402.000000	1.905097 
3400.000000	1.900322 
3398.000000	1.896994 
3396.000000	1.903262 
3394.000000	1.906857 
3392.000000	1.895964 
3390.000000	1.895874 
3388.000000	1.907517 
3386.000000	1.906472 
3384.000000	1.899550 
3382.000000	1.900487 
3380.000000	1.904341 
3378.000000	1.901303 
3376.000000	1.892984 
3374.000000	1.883357 
3372.000000	1.883333 
3370.000000	1.886510 
3368.000000	1.884681 
3366.000000	1.886072 
3364.000000	1.884125 
3362.000000	1.888028 
3360.000000	1.893186 
3358.000000	1.894273 
3356.000000	1.893389 
3354.000000	1.884498 
3352.000000	1.877748 
3350.000000	1.881044 
3348.000000	1.885014 
3346.000000	1.880148 
3344.000000	1.881233 
3342.000000	1.890579 
3340.000000	1.885292 
3338.000000	1.870473 
3336.000000	1.863104 
3334.000000	1.860281 
3332.000000	1.866999 
3330.000000	1.867609 
3328.000000	1.862863 
3326.000000	1.867578 
3324.000000	1.875636 
3322.000000	1.875077 
3320.000000	1.871981 
3318.000000	1.876656 
3316.000000	1.877881 
3314.000000	1.869498 
3312.000000	1.865545 
3310.000000	1.866017 
3308.000000	1.865143 
3306.000000	1.870711 
3304.000000	1.873511 
3302.000000	1.864711 
3300.000000	1.864072 
3298.000000	1.866770 
3296.000000	1.866443 
3294.000000	1.863558 
3292.000000	1.853445 
3290.000000	1.854118 
3288.000000	1.862787 
3286.000000	1.859988 
3284.000000	1.851668 
3282.000000	1.850118 
3280.000000	1.861747 
3278.000000	1.869767 
3276.000000	1.859628 
3274.000000	1.841846 
3272.000000	1.842263 
3270.000000	1.849035 
3268.000000	1.844414 
3266.000000	1.844515 
3264.000000	1.851477 
3262.000000	1.849079 
3260.000000	1.844067 
3258.000000	1.841342 
3256.000000	1.836107 
3254.000000	1.828548 
3252.000000	1.833135 
3250.000000	1.838406 
3248.000000	1.835930 
3246.000000	1.833812 
3244.000000	1.830191 
3242.000000	1.830261 
3240.000000	1.835717 
3238.000000	1.832332 
3236.000000	1.826141 
3234.000000	1.824223 
3232.000000	1.821682 
3230.000000	1.824451 
3228.000000	1.831348 
3226.000000	1.826127 
3224.000000	1.823871 
3222.000000	1.823809 
3220.000000	1.816846 
3218.000000	1.819072 
3216.000000	1.829589 
3214.000000	1.832592 
3212.000000	1.822713 
3210.000000	1.814064 
3208.000000	1.811011 
3206.000000	1.810161 
3204.000000	1.812064 
3202.000000	1.812199 
3200.000000	1.815145 
3198.000000	1.819414 
3196.000000	1.821291 
3194.000000	1.812999 
3192.000000	1.805295 
3190.000000	1.806030 
3188.000000	1.803047 
3186.000000	1.801386 
3184.000000	1.801950 
3182.000000	1.802659 
3180.000000	1.800489 
3178.000000	1.792507 
3176.000000	1.792777 
3174.000000	1.797505 
3172.000000	1.796642 
3170.000000	1.792135 
3168.000000	1.793272 
3166.000000	1.792719 
3164.000000	1.780704 
3162.000000	1.779031 
3160.000000	1.784865 
3158.000000	1.785055 
3156.000000	1.783329 
3154.000000	1.785560 
3152.000000	1.785673 
3150.000000	1.780373 
3148.000000	1.776332 
3146.000000	1.773392 
3144.000000	1.774610 
3142.000000	1.778130 
3140.000000	1.773515 
3138.000000	1.772717 
3136.000000	1.770905 
3134.000000	1.771345 
3132.000000	1.779106 
3130.000000	1.779286 
3128.000000	1.768967 
3126.000000	1.764984 
3124.000000	1.766384 
3122.000000	1.764322 
3120.000000	1.767419 
3118.000000	1.770051 
3116.000000	1.766753 
3114.000000	1.766614 
3112.000000	1.766771 
3110.000000	1.761772 
3108.000000	1.752254 
3106.000000	1.751710 
3104.000000	1.757345 
3102.000000	1.761509 
3100.000000	1.765316 
3098.000000	1.763720 
3096.000000	1.760846 
3094.000000	1.757375 
3092.000000	1.749361 
3090.000000	1.745985 
3088.000000	1.749500 
3086.000000	1.750729 
3084.000000	1.749093 
3082.000000	1.751493 
3080.000000	1.752306 
3078.000000	1.742824 
3076.000000	1.735342 
3074.000000	1.736910 
3072.000000	1.738426 
3070.000000	1.735618 
3068.000000	1.734550 
3066.000000	1.734218 
3064.000000	1.733629 
3062.000000	1.736097 
3060.000000	1.729351 
3058.000000	1.720700 
3056.000000	1.721228 
3054.000000	1.724416 
3052.000000	1.727904 
3050.000000	1.726562 
3048.000000	1.725394 
3046.000000	1.730412 
3044.000000	1.733545 
3042.000000	1.725048 
3040.000000	1.721016 
3038.000000	1.723769 
3036.000000	1.727368 
3034.000000	1.726700 
3032.000000	1.723068 
3030.000000	1.721883 
3028.000000	1.715583 
3026.000000	1.713335 
3024.000000	1.721479 
3022.000000	1.724806 
3020.000000	1.720918 
3018.000000	1.720564 
3016.000000	1.719223 
3014.000000	1.716223 
3012.000000	1.717961 
3010.000000	1.719326 
3008.000000	1.715416 
3006.000000	1.711259 
3004.000000	1.707353 
3002.000000	1.700931 
3000.000000	1.698747 
2998.000000	1.707142 
2996.000000	1.717015 
2994.000000	1.716940 
2992.000000	1.712565 
2990.000000	1.705158 
2988.000000	1.700100 
2986.000000	1.699783 
2984.000000	1.703528 
2982.000000	1.706325 
2980.000000	1.708431 
2978.000000	1.707934 
2976.000000	1.706494 
2974.000000	1.709606 
2972.000000	1.712961 
2970.000000	1.711829 
2968.000000	1.716266 
2966.000000	1.720145 
2964.000000	1.719695 
2962.000000	1.718031 
2960.000000	1.709474 
2958.000000	1.698758 
2956.000000	1.696410 
2954.000000	1.705142 
2952.000000	1.712037 
2950.000000	1.711328 
2948.000000	1.705337 
2946.000000	1.699410 
2944.000000	1.699737 
2942.000000	1.704256 
2940.000000	1.702723 
2938.000000	1.701462 
2936.000000	1.702118 
2934.000000	1.707691 
2932.000000	1.714428 
2930.000000	1.713656 
2928.000000	1.705578 
2926.000000	1.701202 
2924.000000	1.705132 
2922.000000	1.710615 
2920.000000	1.708648 
2918.000000	1.696786 
2916.000000	1.688739 
2914.000000	1.685943 
2912.000000	1.683664 
2910.000000	1.679457 
2908.000000	1.678799 
2906.000000	1.683179 
2904.000000	1.686496 
2902.000000	1.681192 
2900.000000	1.678236 
2898.000000	1.679467 
2896.000000	1.671386 
2894.000000	1.665501 
2892.000000	1.665329 
2890.000000	1.661855 
2888.000000	1.664798 
2886.000000	1.669612 
2884.000000	1.665612 
2882.000000	1.667505 
2880.000000	1.668800 
2878.000000	1.666898 
2876.000000	1.667427 
2874.000000	1.667842 
2872.000000	1.669003 
2870.000000	1.665684 
2868.000000	1.663093 
2866.000000	1.665161 
2864.000000	1.666336 
2862.000000	1.668916 
2860.000000	1.670881 
2858.000000	1.667577 
2856.000000	1.660337 
2854.000000	1.658240 
2852.000000	1.658282 
2850.000000	1.653907 
2848.000000	1.653734 
2846.000000	1.655796 
2844.000000	1.653981 
2842.000000	1.646565 
2840.000000	1.640592 
2838.000000	1.638051 
2836.000000	1.641688 
2834.000000	1.641666 
2832.000000	1.634373 
2830.000000	1.632095 
2828.000000	1.634525 
2826.000000	1.634552 
2824.000000	1.632971 
2822.000000	1.635101 
2820.000000	1.639981 
2818.000000	1.643079 
2816.000000	1.639390 
2814.000000	1.634521 
2812.000000	1.633171 
2810.000000	1.633251 
2808.000000	1.636260 
2806.000000	1.636614 
2804.000000	1.636153 
2802.000000	1.635817 
2800.000000	1.630806 
2798.000000	1.630253 
2796.000000	1.630061 
2794.000000	1.623450 
2792.000000	1.624199 
2790.000000	1.625784 
2788.000000	1.628958 
2786.000000	1.630709 
2784.000000	1.624989 
2782.000000	1.623642 
2780.000000	1.629619 
2778.000000	1.630377 
2776.000000	1.624792 
2774.000000	1.624291 
2772.000000	1.622781 
2770.000000	1.621311 
2768.000000	1.624343 
2766.000000	1.625120 
2764.000000	1.627094 
2762.000000	1.626896 
2760.000000	1.623768 
2758.000000	1.619893 
2756.000000	1.615861 
2754.000000	1.613660 
2752.000000	1.615485 
2750.000000	1.617780 
2748.000000	1.615874 
2746.000000	1.616340 
2744.000000	1.617810 
2742.000000	1.615160 
2740.000000	1.615122 
2738.000000	1.616819 
2736.000000	1.617016 
2734.000000	1.618816 
2732.000000	1.615532 
2730.000000	1.611448 
2728.000000	1.612836 
2726.000000	1.610581 
2724.000000	1.609455 
2722.000000	1.615485 
2720.000000	1.615186 
2718.000000	1.608374 
2716.000000	1.613057 
2714.000000	1.616246 
2712.000000	1.613916 
2710.000000	1.616541 
2708.000000	1.615079 
2706.000000	1.608731 
2704.000000	1.610932 
2702.000000	1.615536 
2700.000000	1.616310 
2698.000000	1.614150 
2696.000000	1.611511 
2694.000000	1.611638 
2692.000000	1.613554 
2690.000000	1.613805 
2688.000000	1.614687 
2686.000000	1.617347 
2684.000000	1.616186 
2682.000000	1.612734 
2680.000000	1.614163 
2678.000000	1.617188 
2676.000000	1.615113 
2674.000000	1.614048 
2672.000000	1.612463 
2670.000000	1.608315 
2668.000000	1.606056 
2666.000000	1.605280 
2664.000000	1.605267 
2662.000000	1.603780 
2660.000000	1.602000 
2658.000000	1.604733 
2656.000000	1.608353 
2654.000000	1.607077 
2652.000000	1.604558 
2650.000000	1.608374 
2648.000000	1.613843 
2646.000000	1.608681 
2644.000000	1.604180 
2642.000000	1.605780 
2640.000000	1.609632 
2638.000000	1.607459 
2636.000000	1.603149 
2634.000000	1.606253 
2632.000000	1.605204 
2630.000000	1.603444 
2628.000000	1.610104 
2626.000000	1.611854 
2624.000000	1.606943 
2622.000000	1.602531 
2620.000000	1.600537 
2618.000000	1.602750 
2616.000000	1.605776 
2614.000000	1.600001 
2612.000000	1.594584 
2610.000000	1.597486 
2608.000000	1.599848 
2606.000000	1.600483 
2604.000000	1.603676 
2602.000000	1.604992 
2600.000000	1.601835 
2598.000000	1.595862 
2596.000000	1.595264 
2594.000000	1.599626 
2592.000000	1.600995 
2590.000000	1.598799 
2588.000000	1.597769 
2586.000000	1.597822 
2584.000000	1.598659 
2582.000000	1.602746 
2580.000000	1.600479 
2578.000000	1.596291 
2576.000000	1.595919 
2574.000000	1.593161 
2572.000000	1.594531 
2570.000000	1.600100 
2568.000000	1.599593 
2566.000000	1.597522 
2564.000000	1.595784 
2562.000000	1.594616 
2560.000000	1.599268 
2558.000000	1.600537 
2556.000000	1.601185 
2554.000000	1.601996 
2552.000000	1.595552 
2550.000000	1.596131 
2548.000000	1.602220 
2546.000000	1.600207 
2544.000000	1.595841 
2542.000000	1.596986 
2540.000000	1.596855 
2538.000000	1.590423 
2536.000000	1.588404 
2534.000000	1.588340 
2532.000000	1.588452 
2530.000000	1.588569 
2528.000000	1.592031 
2526.000000	1.597650 
2524.000000	1.598491 
2522.000000	1.593088 
2520.000000	1.587658 
2518.000000	1.590964 
2516.000000	1.595232 
2514.000000	1.595289 
2512.000000	1.595592 
2510.000000	1.591546 
2508.000000	1.588195 
2506.000000	1.591881 
2504.000000	1.592582 
2502.000000	1.588689 
2500.000000	1.586382 
2498.000000	1.588621 
2496.000000	1.590371 
2494.000000	1.589167 
2492.000000	1.586750 
2490.000000	1.588436 
2488.000000	1.592185 
2486.000000	1.590540 
2484.000000	1.589171 
2482.000000	1.590823 
2480.000000	1.590766 
2478.000000	1.586646 
2476.000000	1.586906 
2474.000000	1.589119 
2472.000000	1.587955 
2470.000000	1.584091 
2468.000000	1.582343 
2466.000000	1.586702 
2464.000000	1.588115 
2462.000000	1.587086 
2460.000000	1.590657 
2458.000000	1.589328 
2456.000000	1.585365 
2454.000000	1.587070 
2452.000000	1.587959 
2450.000000	1.584425 
2448.000000	1.581358 
2446.000000	1.582758 
2444.000000	1.584016 
2442.000000	1.584728 
2440.000000	1.587919 
2438.000000	1.586898 
2436.000000	1.584008 
2434.000000	1.582972 
2432.000000	1.579007 
2430.000000	1.579306 
2428.000000	1.586566 
2426.000000	1.589051 
2424.000000	1.585273 
2422.000000	1.580577 
2420.000000	1.577625 
2418.000000	1.580424 
2416.000000	1.581161 
2414.000000	1.580948 
2412.000000	1.579900 
2410.000000	1.577731 
2408.000000	1.576578 
2406.000000	1.579577 
2404.000000	1.585205 
2402.000000	1.585720 
2400.000000	1.581082 
2398.000000	1.578825 
2396.000000	1.580692 
2394.000000	1.584223 
2392.000000	1.585871 
2390.000000	1.581303 
2388.000000	1.577399 
2386.000000	1.578346 
2384.000000	1.583766 
2382.000000	1.581374 
2380.000000	1.573325 
2378.000000	1.572996 
2376.000000	1.577387 
2374.000000	1.578968 
2372.000000	1.575579 
2370.000000	1.575867 
2368.000000	1.582937 
2366.000000	1.586011 
2364.000000	1.591230 
2362.000000	1.591029 
2360.000000	1.589055 
2358.000000	1.596724 
2356.000000	1.603498 
2354.000000	1.606805 
2352.000000	1.605613 
2350.000000	1.603265 
2348.000000	1.599515 
2346.000000	1.599618 
2344.000000	1.603635 
2342.000000	1.602133 
2340.000000	1.603481 
2338.000000	1.608937 
2336.000000	1.611152 
2334.000000	1.605451 
2332.000000	1.603676 
2330.000000	1.606161 
2328.000000	1.605426 
2326.000000	1.612564 
2324.000000	1.620260 
2322.000000	1.619889 
2320.000000	1.620472 
2318.000000	1.630021 
2316.000000	1.630686 
2314.000000	1.625819 
2312.000000	1.634396 
2310.000000	1.641180 
2308.000000	1.638524 
2306.000000	1.639209 
2304.000000	1.643675 
2302.000000	1.648933 
2300.000000	1.654486 
2298.000000	1.661485 
2296.000000	1.665688 
2294.000000	1.670838 
2292.000000	1.679442 
2290.000000	1.688967 
2288.000000	1.698334 
2286.000000	1.705279 
2284.000000	1.713876 
2282.000000	1.730986 
2280.000000	1.750222 
2278.000000	1.769320 
2276.000000	1.784178 
2274.000000	1.797284 
2272.000000	1.811507 
2270.000000	1.826217 
2268.000000	1.840811 
2266.000000	1.848040 
2264.000000	1.854903 
2262.000000	1.867113 
2260.000000	1.870196 
2258.000000	1.869399 
2256.000000	1.876812 
2254.000000	1.881139 
2252.000000	1.879298 
2250.000000	1.881154 
2248.000000	1.884078 
2246.000000	1.876188 
2244.000000	1.857699 
2242.000000	1.847427 
2240.000000	1.835462 
2238.000000	1.820037 
2236.000000	1.807222 
2234.000000	1.794818 
2232.000000	1.782871 
2230.000000	1.770398 
2228.000000	1.764472 
2226.000000	1.758614 
2224.000000	1.749140 
2222.000000	1.744931 
2220.000000	1.742733 
2218.000000	1.743707 
2216.000000	1.745910 
2214.000000	1.751657 
2212.000000	1.755785 
2210.000000	1.753672 
2208.000000	1.751669 
2206.000000	1.750024 
2204.000000	1.744431 
2202.000000	1.741703 
2200.000000	1.744563 
2198.000000	1.741281 
2196.000000	1.732487 
2194.000000	1.724164 
2192.000000	1.716056 
2190.000000	1.713935 
2188.000000	1.714476 
2186.000000	1.708494 
2184.000000	1.700437 
2182.000000	1.691712 
2180.000000	1.678883 
2178.000000	1.670460 
2176.000000	1.669375 
2174.000000	1.669269 
2172.000000	1.669922 
2170.000000	1.668023 
2168.000000	1.666389 
2166.000000	1.668211 
2164.000000	1.662950 
2162.000000	1.657500 
2160.000000	1.661285 
2158.000000	1.660550 
2156.000000	1.654387 
2154.000000	1.653575 
2152.000000	1.652662 
2150.000000	1.649371 
2148.000000	1.642847 
2146.000000	1.639232 
2144.000000	1.640687 
2142.000000	1.639272 
2140.000000	1.638857 
2138.000000	1.633211 
2136.000000	1.624073 
2134.000000	1.622664 
2132.000000	1.622837 
2130.000000	1.619514 
2128.000000	1.617274 
2126.000000	1.615946 
2124.000000	1.613019 
2122.000000	1.611270 
2120.000000	1.609047 
2118.000000	1.606232 
2116.000000	1.605296 
2114.000000	1.606119 
2112.000000	1.606387 
2110.000000	1.603739 
2108.000000	1.599490 
2106.000000	1.597109 
2104.000000	1.597187 
2102.000000	1.594429 
2100.000000	1.588561 
2098.000000	1.584974 
2096.000000	1.584322 
2094.000000	1.584191 
2092.000000	1.580885 
2090.000000	1.577348 
2088.000000	1.572303 
2086.000000	1.569808 
2084.000000	1.569335 
2082.000000	1.564926 
2080.000000	1.563046 
2078.000000	1.560841 
2076.000000	1.555723 
2074.000000	1.551172 
2072.000000	1.550410 
2070.000000	1.551850 
2068.000000	1.550690 
2066.000000	1.547397 
2064.000000	1.544670 
2062.000000	1.542376 
2060.000000	1.538917 
2058.000000	1.536097 
2056.000000	1.531675 
2054.000000	1.529192 
2052.000000	1.530676 
2050.000000	1.530237 
2048.000000	1.530556 
2046.000000	1.531929 
2044.000000	1.532390 
2042.000000	1.532517 
2040.000000	1.529297 
2038.000000	1.525080 
2036.000000	1.522965 
2034.000000	1.521246 
2032.000000	1.518350 
2030.000000	1.515419 
2028.000000	1.515941 
2026.000000	1.517496 
2024.000000	1.521322 
2022.000000	1.524910 
2020.000000	1.523304 
2018.000000	1.518093 
2016.000000	1.514704 
2014.000000	1.515046 
2012.000000	1.516587 
2010.000000	1.516251 
2008.000000	1.516706 
2006.000000	1.516519 
2004.000000	1.515901 
2002.000000	1.516067 
2000.000000	1.513256 
1998.000000	1.510682 
1996.000000	1.511582 
1994.000000	1.513675 
1992.000000	1.514067 
1990.000000	1.512248 
1988.000000	1.510672 
1986.000000	1.510088 
1984.000000	1.506026 
1982.000000	1.504361 
1980.000000	1.508596 
1978.000000	1.511189 
1976.000000	1.508940 
1974.000000	1.507076 
1972.000000	1.507372 
1970.000000	1.505973 
1968.000000	1.508443 
1966.000000	1.514914 
1964.000000	1.514531 
1962.000000	1.510897 
1960.000000	1.513010 
1958.000000	1.516468 
1956.000000	1.511700 
1954.000000	1.508423 
1952.000000	1.508312 
1950.000000	1.507229 
1948.000000	1.507886 
1946.000000	1.508056 
1944.000000	1.505492 
1942.000000	1.507519 
1940.000000	1.510048 
1938.000000	1.505996 
1936.000000	1.501971 
1934.000000	1.503427 
1932.000000	1.506474 
1930.000000	1.505744 
1928.000000	1.504662 
1926.000000	1.504719 
1924.000000	1.503582 
1922.000000	1.507572 
1920.000000	1.506461 
1918.000000	1.507063 
1916.000000	1.508076 
1914.000000	1.501310 
1912.000000	1.498532 
1910.000000	1.500353 
1908.000000	1.503028 
1906.000000	1.499737 
1904.000000	1.498519 
1902.000000	1.499498 
1900.000000	1.501865 
1898.000000	1.501780 
1896.000000	1.499279 
1894.000000	1.498861 
1892.000000	1.495350 
1890.000000	1.495755 
1888.000000	1.501681 
1886.000000	1.499986 
1884.000000	1.495045 
1882.000000	1.491057 
1880.000000	1.493085 
1878.000000	1.495362 
1876.000000	1.491782 
1874.000000	1.491615 
1872.000000	1.488745 
1870.000000	1.488809 
1868.000000	1.502287 
1866.000000	1.502576 
1864.000000	1.493433 
1862.000000	1.490455 
1860.000000	1.490666 
1858.000000	1.490243 
1856.000000	1.488241 
1854.000000	1.486229 
1852.000000	1.486160 
1850.000000	1.484710 
1848.000000	1.483196 
1846.000000	1.478188 
1844.000000	1.487318 
1842.000000	1.494625 
1840.000000	1.484666 
1838.000000	1.482890 
1836.000000	1.485263 
1834.000000	1.484391 
1832.000000	1.479071 
1830.000000	1.486705 
1828.000000	1.493559 
1826.000000	1.484473 
1824.000000	1.486397 
1822.000000	1.487115 
1820.000000	1.479324 
1818.000000	1.474342 
1816.000000	1.475568 
1814.000000	1.473774 
1812.000000	1.471261 
1810.000000	1.475454 
1808.000000	1.476929 
1806.000000	1.472457 
1804.000000	1.466910 
1802.000000	1.465233 
1800.000000	1.471350 
1798.000000	1.472912 
1796.000000	1.470618 
1794.000000	1.462672 
1792.000000	1.469817 
1790.000000	1.477936 
1788.000000	1.468768 
1786.000000	1.459169 
1784.000000	1.459476 
1782.000000	1.459763 
1780.000000	1.460766 
1778.000000	1.463822 
1776.000000	1.461125 
1774.000000	1.450840 
1772.000000	1.460348 
1770.000000	1.470957 
1768.000000	1.466362 
1766.000000	1.462666 
1764.000000	1.448653 
1762.000000	1.450385 
1760.000000	1.460291 
1758.000000	1.456345 
1756.000000	1.460201 
1754.000000	1.451698 
1752.000000	1.444370 
1750.000000	1.458285 
1748.000000	1.459619 
1746.000000	1.455263 
1744.000000	1.453882 
1742.000000	1.449233 
1740.000000	1.445682 
1738.000000	1.448380 
1736.000000	1.426114 
1734.000000	1.440899 
1732.000000	1.469945 
1730.000000	1.458889 
1728.000000	1.455511 
1726.000000	1.451545 
1724.000000	1.447703 
1722.000000	1.443676 
1720.000000	1.431125 
1718.000000	1.437807 
1716.000000	1.463644 
1714.000000	1.464056 
1712.000000	1.450691 
1710.000000	1.437102 
1708.000000	1.429658 
1706.000000	1.435110 
1704.000000	1.438182 
1702.000000	1.415888 
1700.000000	1.435742 
1698.000000	1.445497 
1696.000000	1.438023 
1694.000000	1.443783 
1692.000000	1.423683 
1690.000000	1.416023 
1688.000000	1.413806 
1686.000000	1.397177 
1684.000000	1.422706 
1682.000000	1.442545 
1680.000000	1.423480 
1678.000000	1.412926 
1676.000000	1.404220 
1674.000000	1.417997 
1672.000000	1.412195 
1670.000000	1.406450 
1668.000000	1.420675 
1666.000000	1.413701 
1664.000000	1.399368 
1662.000000	1.407113 
1660.000000	1.409811 
1658.000000	1.399690 
1656.000000	1.379095 
1654.000000	1.374758 
1652.000000	1.437184 
1650.000000	1.426023 
1648.000000	1.402197 
1646.000000	1.420302 
1644.000000	1.424791 
1642.000000	1.413122 
1640.000000	1.406732 
1638.000000	1.394196 
1636.000000	1.401688 
1634.000000	1.428710 
1632.000000	1.419018 
1630.000000	1.403810 
1628.000000	1.403008 
1626.000000	1.403666 
1624.000000	1.401894 
1622.000000	1.409463 
1620.000000	1.398769 
1618.000000	1.389079 
1616.000000	1.407779 
1614.000000	1.404567 
1612.000000	1.387765 
1610.000000	1.383344 
1608.000000	1.383722 
1606.000000	1.380147 
1604.000000	1.373550 
1602.000000	1.368186 
1600.000000	1.364481 
1598.000000	1.359769 
1596.000000	1.356741 
1594.000000	1.356118 
1592.000000	1.352245 
1590.000000	1.348649 
1588.000000	1.348529 
1586.000000	1.346472 
1584.000000	1.344532 
1582.000000	1.342484 
1580.000000	1.337422 
1578.000000	1.327063 
1576.000000	1.343656 
1574.000000	1.355894 
1572.000000	1.336574 
1570.000000	1.332045 
1568.000000	1.343286 
1566.000000	1.335925 
1564.000000	1.329011 
1562.000000	1.314312 
1560.000000	1.312973 
1558.000000	1.364598 
1556.000000	1.352065 
1554.000000	1.334545 
1552.000000	1.326577 
1550.000000	1.322066 
1548.000000	1.320285 
1546.000000	1.312384 
1544.000000	1.309976 
1542.000000	1.309365 
1540.000000	1.333100 
1538.000000	1.341019 
1536.000000	1.312892 
1534.000000	1.306626 
1532.000000	1.318393 
1530.000000	1.305235 
1528.000000	1.297890 
1526.000000	1.303730 
1524.000000	1.299965 
1522.000000	1.298608 
1520.000000	1.313150 
1518.000000	1.305051 
1516.000000	1.304855 
1514.000000	1.299373 
1512.000000	1.291961 
1510.000000	1.290532 
1508.000000	1.292828 
1506.000000	1.313964 
1504.000000	1.304878 
1502.000000	1.284291 
1500.000000	1.275546 
1498.000000	1.279744 
1496.000000	1.291444 
1494.000000	1.290829 
1492.000000	1.280629 
1490.000000	1.283686 
1488.000000	1.289528 
1486.000000	1.284813 
1484.000000	1.276527 
1482.000000	1.273868 
1480.000000	1.274362 
1478.000000	1.271207 
1476.000000	1.273930 
1474.000000	1.275177 
1472.000000	1.288708 
1470.000000	1.285966 
1468.000000	1.270452 
1466.000000	1.267482 
1464.000000	1.277295 
1462.000000	1.272454 
1460.000000	1.260177 
1458.000000	1.267837 
1456.000000	1.296128 
1454.000000	1.287155 
1452.000000	1.269902 
1450.000000	1.262941 
1448.000000	1.262423 
1446.000000	1.263432 
1444.000000	1.257317 
1442.000000	1.252049 
1440.000000	1.245375 
1438.000000	1.242598 
1436.000000	1.255951 
1434.000000	1.251570 
1432.000000	1.240727 
1430.000000	1.239866 
1428.000000	1.239108 
1426.000000	1.232787 
1424.000000	1.229619 
1422.000000	1.223660 
1420.000000	1.222720 
1418.000000	1.236127 
1416.000000	1.230237 
1414.000000	1.219399 
1412.000000	1.216599 
1410.000000	1.215117 
1408.000000	1.210011 
1406.000000	1.208091 
1404.000000	1.214390 
1402.000000	1.211855 
1400.000000	1.206541 
1398.000000	1.208742 
1396.000000	1.207161 
1394.000000	1.209578 
1392.000000	1.206719 
1390.000000	1.197185 
1388.000000	1.195195 
1386.000000	1.197789 
1384.000000	1.194033 
1382.000000	1.190508 
1380.000000	1.189795 
1378.000000	1.186544 
1376.000000	1.181318 
1374.000000	1.182353 
1372.000000	1.180887 
1370.000000	1.175353 
1368.000000	1.174135 
1366.000000	1.174020 
1364.000000	1.173298 
1362.000000	1.175919 
1360.000000	1.170313 
1358.000000	1.163948 
1356.000000	1.161569 
1354.000000	1.159531 
1352.000000	1.157185 
1350.000000	1.154078 
1348.000000	1.151480 
1346.000000	1.149067 
1344.000000	1.146032 
1342.000000	1.145481 
1340.000000	1.147012 
1338.000000	1.145547 
1336.000000	1.140844 
1334.000000	1.139691 
1332.000000	1.140075 
1330.000000	1.137165 
1328.000000	1.133667 
1326.000000	1.132540 
1324.000000	1.133049 
1322.000000	1.133646 
1320.000000	1.132293 
1318.000000	1.129180 
1316.000000	1.126082 
1314.000000	1.125468 
1312.000000	1.126668 
1310.000000	1.124360 
1308.000000	1.120728 
1306.000000	1.119756 
1304.000000	1.119610 
1302.000000	1.117051 
1300.000000	1.116082 
1298.000000	1.116113 
1296.000000	1.115402 
1294.000000	1.113956 
1292.000000	1.111943 
1290.000000	1.109957 
1288.000000	1.111662 
1286.000000	1.111663 
1284.000000	1.108228 
1282.000000	1.107455 
1280.000000	1.108631 
1278.000000	1.107640 
1276.000000	1.107365 
1274.000000	1.110341 
1272.000000	1.112950 
1270.000000	1.113918 
1268.000000	1.114155 
1266.000000	1.115053 
1264.000000	1.115956 
1262.000000	1.117081 
1260.000000	1.118749 
1258.000000	1.119111 
1256.000000	1.119366 
1254.000000	1.120714 
1252.000000	1.122848 
1250.000000	1.127217 
1248.000000	1.132318 
1246.000000	1.136726 
1244.000000	1.142014 
1242.000000	1.150269 
1240.000000	1.160443 
1238.000000	1.173562 
1236.000000	1.187589 
1234.000000	1.201102 
1232.000000	1.216322 
1230.000000	1.233432 
1228.000000	1.249397 
1226.000000	1.267864 
1224.000000	1.289732 
1222.000000	1.309574 
1220.000000	1.329411 
1218.000000	1.351982 
1216.000000	1.375735 
1214.000000	1.398533 
1212.000000	1.418884 
1210.000000	1.438901 
1208.000000	1.464174 
1206.000000	1.489268 
1204.000000	1.509747 
1202.000000	1.528031 
1200.000000	1.551588 
1198.000000	1.575786 
1196.000000	1.596148 
1194.000000	1.614972 
1192.000000	1.629787 
1190.000000	1.647949 
1188.000000	1.666879 
1186.000000	1.681177 
1184.000000	1.696035 
1182.000000	1.707084 
1180.000000	1.718637 
1178.000000	1.737419 
1176.000000	1.753038 
1174.000000	1.762904 
1172.000000	1.770978 
1170.000000	1.778391 
1168.000000	1.787193 
1166.000000	1.794508 
1164.000000	1.804470 
1162.000000	1.822417 
1160.000000	1.831952 
1158.000000	1.836889 
1156.000000	1.842587 
1154.000000	1.845806 
1152.000000	1.849987 
1150.000000	1.860348 
1148.000000	1.869299 
1146.000000	1.864627 
1144.000000	1.880902 
1142.000000	1.898532 
1140.000000	1.893041 
1138.000000	1.891602 
1136.000000	1.897975 
1134.000000	1.907835 
1132.000000	1.913688 
1130.000000	1.911746 
1128.000000	1.914248 
1126.000000	1.921308 
1124.000000	1.919506 
1122.000000	1.916489 
1120.000000	1.933592 
1118.000000	1.956348 
1116.000000	1.968799 
1114.000000	1.974330 
1112.000000	1.974759 
1110.000000	1.979869 
1108.000000	1.986752 
1106.000000	2.004705 
1104.000000	2.016806 
1102.000000	2.024197 
1100.000000	2.038432 
1098.000000	2.051800 
1096.000000	2.067577 
1094.000000	2.108684 
1092.000000	2.130836 
1090.000000	2.133939 
1088.000000	2.145828 
1086.000000	2.152456 
1084.000000	2.160097 
1082.000000	2.175843 
1080.000000	2.189738 
1078.000000	2.212675 
1076.000000	2.224945 
1074.000000	2.213300 
1072.000000	2.207536 
1070.000000	2.231194 
1068.000000	2.262501 
1066.000000	2.265696 
1064.000000	2.252055 
1062.000000	2.250630 
1060.000000	2.242647 
1058.000000	2.244607 
1056.000000	2.232963 
1054.000000	2.191167 
1052.000000	2.149829 
1050.000000	2.122163 
1048.000000	2.115046 
1046.000000	2.115141 
1044.000000	2.089474 
1042.000000	2.042362 
1040.000000	2.011300 
1038.000000	1.997831 
1036.000000	1.975581 
1034.000000	1.921057 
1032.000000	1.879886 
1030.000000	1.848120 
1028.000000	1.806624 
1026.000000	1.769509 
1024.000000	1.724356 
1022.000000	1.673422 
1020.000000	1.627458 
1018.000000	1.576304 
1016.000000	1.520796 
1014.000000	1.466462 
1012.000000	1.413937 
1010.000000	1.361398 
1008.000000	1.311874 
1006.000000	1.267289 
1004.000000	1.222853 
1002.000000	1.181912 
1000.000000	1.146267 
998.000000	 1.112521 
996.000000	 1.081135 
994.000000	 1.056076 
992.000000	 1.037543 
990.000000	 1.026187 
988.000000	 1.021153 
986.000000	 1.017223 
984.000000	 1.009879 
982.000000	 0.998564 
980.000000	 0.984478 
978.000000	 0.967073 
976.000000	 0.947866 
974.000000	 0.928960 
972.000000	 0.909681 
970.000000	 0.889852 
968.000000	 0.873088 
966.000000	 0.861520 
964.000000	 0.854214 
962.000000	 0.848593 
960.000000	 0.843987 
958.000000	 0.841592 
956.000000	 0.842577 
954.000000	 0.846366 
952.000000	 0.851671 
950.000000	 0.859111 
948.000000	 0.869398 
946.000000	 0.879073 
944.000000	 0.886047 
942.000000	 0.890127 
940.000000	 0.889571 
938.000000	 0.886154 
936.000000	 0.881711 
934.000000	 0.877315 
932.000000	 0.872193 
930.000000	 0.865855 
928.000000	 0.856854 
926.000000	 0.845102 
924.000000	 0.834523 
922.000000	 0.825639 
920.000000	 0.818692 
918.000000	 0.813957 
916.000000	 0.812697 
914.000000	 0.814095 
912.000000	 0.818838 
910.000000	 0.826963 
908.000000	 0.836991 
906.000000	 0.848566 
904.000000	 0.861053 
902.000000	 0.874314 
900.000000	 0.892627 
898.000000	 0.918360 
896.000000	 0.950179 
894.000000	 0.990973 
892.000000	 1.040258 
890.000000	 1.091395 
888.000000	 1.141765 
886.000000	 1.185880 
884.000000	 1.221022 
882.000000	 1.252897 
880.000000	 1.273790 
878.000000	 1.279671 
876.000000	 1.278260 
874.000000	 1.268111 
872.000000	 1.243252 
870.000000	 1.217675 
868.000000	 1.195399 
866.000000	 1.176161 
864.000000	 1.157938 
862.000000	 1.140281 
860.000000	 1.128124 
858.000000	 1.116428 
856.000000	 1.104723 
854.000000	 1.097217 
852.000000	 1.092343 
850.000000	 1.088677 
848.000000	 1.083534 
846.000000	 1.075433 
844.000000	 1.064491 
842.000000	 1.052630 
840.000000	 1.038597 
838.000000	 1.020298 
836.000000	 0.994610 
834.000000	 0.961931 
832.000000	 0.926320 
830.000000	 0.884023 
828.000000	 0.836638 
826.000000	 0.789525 
824.000000	 0.748047 
822.000000	 0.715029 
820.000000	 0.689982 
818.000000	 0.671998 
816.000000	 0.657030 
814.000000	 0.644555 
812.000000	 0.635960 
810.000000	 0.630691 
808.000000	 0.626991 
806.000000	 0.622513 
804.000000	 0.617327 
802.000000	 0.611777 
800.000000	 0.606390 
798.000000	 0.601995 
796.000000	 0.597369 
794.000000	 0.591856 
792.000000	 0.586633 
790.000000	 0.581266 
788.000000	 0.575483 
786.000000	 0.570930 
784.000000	 0.568091 
782.000000	 0.565672 
780.000000	 0.562626 
778.000000	 0.559768 
776.000000	 0.556812 
774.000000	 0.553958 
772.000000	 0.552212 
770.000000	 0.550706 
768.000000	 0.549088 
766.000000	 0.547277 
764.000000	 0.545114 
762.000000	 0.544603 
760.000000	 0.545622 
758.000000	 0.545833 
756.000000	 0.545196 
754.000000	 0.543725 
752.000000	 0.542626 
750.000000	 0.541164 
748.000000	 0.538867 
746.000000	 0.536788 
744.000000	 0.534131 
742.000000	 0.530610 
740.000000	 0.527045 
738.000000	 0.523687 
736.000000	 0.518718 
734.000000	 0.512980 
732.000000	 0.508408 
730.000000	 0.503648 
728.000000	 0.498514 
726.000000	 0.493043 
724.000000	 0.488071 
722.000000	 0.484660 
720.000000	 0.481782 
718.000000	 0.479099 
716.000000	 0.477246 
714.000000	 0.476391 
712.000000	 0.475081 
710.000000	 0.471784 
708.000000	 0.465977 
706.000000	 0.458634 
704.000000	 0.450301 
702.000000	 0.440608 
700.000000	 0.430815 
698.000000	 0.421915 
696.000000	 0.414392 
694.000000	 0.407845 
692.000000	 0.402553 
690.000000	 0.398028 
688.000000	 0.392682 
686.000000	 0.387073 
684.000000	 0.383629 
682.000000	 0.381501 
680.000000	 0.378680 
678.000000	 0.375541 
676.000000	 0.372957 
674.000000	 0.369811 
672.000000	 0.367611 
670.000000	 0.368025 
668.000000	 0.369122 
666.000000	 0.363177 
664.000000	 0.357721 
662.000000	 0.355190 
660.000000	 0.351951 
658.000000	 0.350215 
656.000000	 0.348909 
654.000000	 0.346378 
652.000000	 0.343927 
650.000000	 0.341874 
648.000000	 0.339684 
646.000000	 0.337037 
644.000000	 0.334826 
642.000000	 0.333149 
640.000000	 0.331061 
638.000000	 0.328403 
636.000000	 0.325134 
634.000000	 0.322292 
632.000000	 0.319119 
630.000000	 0.315276 
628.000000	 0.310814 
626.000000	 0.305063 
624.000000	 0.299085 
622.000000	 0.294339 
620.000000	 0.289572 
618.000000	 0.286479 
616.000000	 0.283214 
614.000000	 0.277223 
612.000000	 0.272028 
610.000000	 0.268983 
608.000000	 0.265691 
606.000000	 0.260669 
604.000000	 0.257065 
602.000000	 0.254934 
600.000000	 0.251267 
598.000000	 0.246993 
596.000000	 0.243198 
594.000000	 0.239767 
592.000000	 0.236596 
590.000000	 0.232799 
588.000000	 0.229267 
586.000000	 0.225912 
584.000000	 0.222499 
582.000000	 0.219763 
580.000000	 0.216447 
578.000000	 0.212886 
576.000000	 0.210511 
574.000000	 0.207299 
572.000000	 0.203616 
570.000000	 0.200679 
568.000000	 0.198796 
566.000000	 0.196864 
564.000000	 0.194225 
562.000000	 0.191850 
560.000000	 0.190358 
558.000000	 0.189305 
556.000000	 0.188482 
554.000000	 0.187644 
552.000000	 0.187273 
550.000000	 0.187180 
548.000000	 0.185809 
546.000000	 0.184580 
544.000000	 0.184534 
542.000000	 0.185238 
540.000000	 0.185606 
538.000000	 0.185945 
536.000000	 0.185924 
534.000000	 0.186221 
532.000000	 0.187127 
530.000000	 0.188252 
528.000000	 0.189966 
526.000000	 0.191200 
524.000000	 0.190587 
522.000000	 0.191200 
520.000000	 0.193858 
518.000000	 0.196692 
516.000000	 0.198513 
514.000000	 0.199404 
512.000000	 0.201436 
510.000000	 0.205507 
508.000000	 0.210488 
506.000000	 0.215105 
504.000000	 0.220446 
502.000000	 0.227175 
500.000000	 0.234218 
498.000000	 0.242858 
496.000000	 0.254871 
494.000000	 0.269009 
492.000000	 0.283401 
490.000000	 0.296348 
488.000000	 0.309830 
486.000000	 0.326686 
484.000000	 0.343150 
482.000000	 0.359458 
480.000000	 0.374517 
478.000000	 0.388099 
476.000000	 0.400839 
474.000000	 0.413448 
472.000000	 0.426206 
470.000000	 0.437274 
468.000000	 0.447877 
466.000000	 0.454692 
464.000000	 0.460905 
462.000000	 0.467848 
460.000000	 0.471240 
458.000000	 0.474630 
456.000000	 0.476902 
454.000000	 0.476840 
452.000000	 0.476090 
450.000000	 0.473610 

