PE IR       SUBTECH     SPECTRUM    ASCII       PEDS        1.60        
  -1
1911A1.ASC
07/11/19
13:25:41.00
07/11/20
10:06:12.00
koro/arcerd
3min 200 C
450.000000
16









1004,02.19S
DTGS
MIR
KBR
52208
0.300000

4.000000
STRONG
RATIO
MAGNITUDE


DOUBLE SIDED
16
BIDIRECTIONAL
2




#HDR
-1
-1
#GR
CM-1
A
0.00000011920928955078
0.0
4400.000000
-2.000000
1976
8
1.615556
0.109247
#DATA
4400.000000	1.595428 
4398.000000	1.600186 
4396.000000	1.602916 
4394.000000	1.599374 
4392.000000	1.595269 
4390.000000	1.594568 
4388.000000	1.599811 
4386.000000	1.608425 
4384.000000	1.611102 
4382.000000	1.603020 
4380.000000	1.597210 
4378.000000	1.598917 
4376.000000	1.603630 
4374.000000	1.615215 
4372.000000	1.611698 
4370.000000	1.602804 
4368.000000	1.605209 
4366.000000	1.607753 
4364.000000	1.608475 
4362.000000	1.607010 
4360.000000	1.598219 
4358.000000	1.597055 
4356.000000	1.595844 
4354.000000	1.592266 
4352.000000	1.595363 
4350.000000	1.600206 
4348.000000	1.601847 
4346.000000	1.604963 
4344.000000	1.602779 
4342.000000	1.601024 
4340.000000	1.598905 
4338.000000	1.593515 
4336.000000	1.588777 
4334.000000	1.592623 
4332.000000	1.596874 
4330.000000	1.597608 
4328.000000	1.598112 
4326.000000	1.593341 
4324.000000	1.590819 
4322.000000	1.595330 
4320.000000	1.609413 
4318.000000	1.615556 
4316.000000	1.610206 
4314.000000	1.605405 
4312.000000	1.596883 
4310.000000	1.597116 
4308.000000	1.606002 
4306.000000	1.599555 
4304.000000	1.586102 
4302.000000	1.581693 
4300.000000	1.590057 
4298.000000	1.596269 
4296.000000	1.594902 
4294.000000	1.586754 
4292.000000	1.581026 
4290.000000	1.592890 
4288.000000	1.601884 
4286.000000	1.599065 
4284.000000	1.598153 
4282.000000	1.595077 
4280.000000	1.593438 
4278.000000	1.594243 
4276.000000	1.592286 
4274.000000	1.591712 
4272.000000	1.593540 
4270.000000	1.594686 
4268.000000	1.594385 
4266.000000	1.589851 
4264.000000	1.583519 
4262.000000	1.588420 
4260.000000	1.587955 
4258.000000	1.586334 
4256.000000	1.595008 
4254.000000	1.597706 
4252.000000	1.593617 
4250.000000	1.586778 
4248.000000	1.585612 
4246.000000	1.592829 
4244.000000	1.586914 
4242.000000	1.583698 
4240.000000	1.589127 
4238.000000	1.592493 
4236.000000	1.594853 
4234.000000	1.593138 
4232.000000	1.590823 
4230.000000	1.593251 
4228.000000	1.594813 
4226.000000	1.591223 
4224.000000	1.588452 
4222.000000	1.584170 
4220.000000	1.588806 
4218.000000	1.599975 
4216.000000	1.597891 
4214.000000	1.590601 
4212.000000	1.586406 
4210.000000	1.588649 
4208.000000	1.590662 
4206.000000	1.586406 
4204.000000	1.586474 
4202.000000	1.583614 
4200.000000	1.580876 
4198.000000	1.579757 
4196.000000	1.583924 
4194.000000	1.584298 
4192.000000	1.582698 
4190.000000	1.592189 
4188.000000	1.592007 
4186.000000	1.586226 
4184.000000	1.588203 
4182.000000	1.589517 
4180.000000	1.593174 
4178.000000	1.594853 
4176.000000	1.587314 
4174.000000	1.583305 
4172.000000	1.585811 
4170.000000	1.584580 
4168.000000	1.583785 
4166.000000	1.582528 
4164.000000	1.579336 
4162.000000	1.581018 
4160.000000	1.584496 
4158.000000	1.587246 
4156.000000	1.591756 
4154.000000	1.591692 
4152.000000	1.586366 
4150.000000	1.583186 
4148.000000	1.577325 
4146.000000	1.568901 
4144.000000	1.567384 
4142.000000	1.577689 
4140.000000	1.587746 
4138.000000	1.584087 
4136.000000	1.579482 
4134.000000	1.578167 
4132.000000	1.578163 
4130.000000	1.573822 
4128.000000	1.571932 
4126.000000	1.572945 
4124.000000	1.577368 
4122.000000	1.578947 
4120.000000	1.574474 
4118.000000	1.575124 
4116.000000	1.575973 
4114.000000	1.576266 
4112.000000	1.576566 
4110.000000	1.576336 
4108.000000	1.578335 
4106.000000	1.580501 
4104.000000	1.579659 
4102.000000	1.581622 
4100.000000	1.580474 
4098.000000	1.576477 
4096.000000	1.581326 
4094.000000	1.582199 
4092.000000	1.579639 
4090.000000	1.576769 
4088.000000	1.571160 
4086.000000	1.572713 
4084.000000	1.576000 
4082.000000	1.574427 
4080.000000	1.570882 
4078.000000	1.571588 
4076.000000	1.570971 
4074.000000	1.567277 
4072.000000	1.572028 
4070.000000	1.575482 
4068.000000	1.571596 
4066.000000	1.572330 
4064.000000	1.574260 
4062.000000	1.569892 
4060.000000	1.563896 
4058.000000	1.559987 
4056.000000	1.564723 
4054.000000	1.572361 
4052.000000	1.571314 
4050.000000	1.571453 
4048.000000	1.572636 
4046.000000	1.568437 
4044.000000	1.568798 
4042.000000	1.574680 
4040.000000	1.574431 
4038.000000	1.573147 
4036.000000	1.572442 
4034.000000	1.570069 
4032.000000	1.569216 
4030.000000	1.566922 
4028.000000	1.564116 
4026.000000	1.571032 
4024.000000	1.573822 
4022.000000	1.567036 
4020.000000	1.560774 
4018.000000	1.564127 
4016.000000	1.567736 
4014.000000	1.566223 
4012.000000	1.564104 
4010.000000	1.567170 
4008.000000	1.567820 
4006.000000	1.564587 
4004.000000	1.568794 
4002.000000	1.575108 
4000.000000	1.570909 
3998.000000	1.569512 
3996.000000	1.575311 
3994.000000	1.570739 
3992.000000	1.565020 
3990.000000	1.564556 
3988.000000	1.561546 
3986.000000	1.563543 
3984.000000	1.568660 
3982.000000	1.569189 
3980.000000	1.566857 
3978.000000	1.563357 
3976.000000	1.558130 
3974.000000	1.563695 
3972.000000	1.571457 
3970.000000	1.566964 
3968.000000	1.559566 
3966.000000	1.553472 
3964.000000	1.555496 
3962.000000	1.560495 
3960.000000	1.561614 
3958.000000	1.566109 
3956.000000	1.566147 
3954.000000	1.563444 
3952.000000	1.565237 
3950.000000	1.562865 
3948.000000	1.560928 
3946.000000	1.562067 
3944.000000	1.566620 
3942.000000	1.566677 
3940.000000	1.561860 
3938.000000	1.560503 
3936.000000	1.555499 
3934.000000	1.554373 
3932.000000	1.557065 
3930.000000	1.557947 
3928.000000	1.560582 
3926.000000	1.566510 
3924.000000	1.565047 
3922.000000	1.553484 
3920.000000	1.553484 
3918.000000	1.564465 
3916.000000	1.565332 
3914.000000	1.558606 
3912.000000	1.555451 
3910.000000	1.556483 
3908.000000	1.556807 
3906.000000	1.559957 
3904.000000	1.563839 
3902.000000	1.562347 
3900.000000	1.564101 
3898.000000	1.561395 
3896.000000	1.552263 
3894.000000	1.544123 
3892.000000	1.548773 
3890.000000	1.559773 
3888.000000	1.561697 
3886.000000	1.559243 
3884.000000	1.556360 
3882.000000	1.556613 
3880.000000	1.560710 
3878.000000	1.552684 
3876.000000	1.545306 
3874.000000	1.549399 
3872.000000	1.553572 
3870.000000	1.560273 
3868.000000	1.554511 
3866.000000	1.556430 
3864.000000	1.560634 
3862.000000	1.560292 
3860.000000	1.555283 
3858.000000	1.538584 
3856.000000	1.530982 
3854.000000	1.552618 
3852.000000	1.564097 
3850.000000	1.559247 
3848.000000	1.552440 
3846.000000	1.547018 
3844.000000	1.550115 
3842.000000	1.551304 
3840.000000	1.548915 
3838.000000	1.551525 
3836.000000	1.551809 
3834.000000	1.549077 
3832.000000	1.554362 
3830.000000	1.554058 
3828.000000	1.547986 
3826.000000	1.548139 
3824.000000	1.545219 
3822.000000	1.554384 
3820.000000	1.560047 
3818.000000	1.549392 
3816.000000	1.553484 
3814.000000	1.554299 
3812.000000	1.547142 
3810.000000	1.540043 
3808.000000	1.545571 
3806.000000	1.547763 
3804.000000	1.539648 
3802.000000	1.553535 
3800.000000	1.556919 
3798.000000	1.552001 
3796.000000	1.557128 
3794.000000	1.557057 
3792.000000	1.550928 
3790.000000	1.545404 
3788.000000	1.545430 
3786.000000	1.548553 
3784.000000	1.548399 
3782.000000	1.545564 
3780.000000	1.551245 
3778.000000	1.554410 
3776.000000	1.551216 
3774.000000	1.544112 
3772.000000	1.539748 
3770.000000	1.546420 
3768.000000	1.544972 
3766.000000	1.544649 
3764.000000	1.547616 
3762.000000	1.545241 
3760.000000	1.548754 
3758.000000	1.547675 
3756.000000	1.542022 
3754.000000	1.539114 
3752.000000	1.543409 
3750.000000	1.554017 
3748.000000	1.551190 
3746.000000	1.547551 
3744.000000	1.565039 
3742.000000	1.561143 
3740.000000	1.551249 
3738.000000	1.546314 
3736.000000	1.553276 
3734.000000	1.553261 
3732.000000	1.555150 
3730.000000	1.559897 
3728.000000	1.563028 
3726.000000	1.562502 
3724.000000	1.561279 
3722.000000	1.562218 
3720.000000	1.557087 
3718.000000	1.556106 
3716.000000	1.558239 
3714.000000	1.560834 
3712.000000	1.569608 
3710.000000	1.574855 
3708.000000	1.572442 
3706.000000	1.571754 
3704.000000	1.567258 
3702.000000	1.566853 
3700.000000	1.571190 
3698.000000	1.573399 
3696.000000	1.571735 
3694.000000	1.566399 
3692.000000	1.561954 
3690.000000	1.562933 
3688.000000	1.577834 
3686.000000	1.581381 
3684.000000	1.578661 
3682.000000	1.576387 
3680.000000	1.571970 
3678.000000	1.563661 
3676.000000	1.569350 
3674.000000	1.569454 
3672.000000	1.560879 
3670.000000	1.570012 
3668.000000	1.577614 
3666.000000	1.575322 
3664.000000	1.575673 
3662.000000	1.578955 
3660.000000	1.575431 
3658.000000	1.573519 
3656.000000	1.577599 
3654.000000	1.562695 
3652.000000	1.552762 
3650.000000	1.555295 
3648.000000	1.567909 
3646.000000	1.573670 
3644.000000	1.575712 
3642.000000	1.576777 
3640.000000	1.572814 
3638.000000	1.568288 
3636.000000	1.563968 
3634.000000	1.567472 
3632.000000	1.563441 
3630.000000	1.563069 
3628.000000	1.566403 
3626.000000	1.561343 
3624.000000	1.562067 
3622.000000	1.561018 
3620.000000	1.565111 
3618.000000	1.567641 
3616.000000	1.564241 
3614.000000	1.567985 
3612.000000	1.566681 
3610.000000	1.561795 
3608.000000	1.559018 
3606.000000	1.559022 
3604.000000	1.562657 
3602.000000	1.566823 
3600.000000	1.565092 
3598.000000	1.563032 
3596.000000	1.563221 
3594.000000	1.563782 
3592.000000	1.562339 
3590.000000	1.561154 
3588.000000	1.569873 
3586.000000	1.574653 
3584.000000	1.569550 
3582.000000	1.563782 
3580.000000	1.565926 
3578.000000	1.568955 
3576.000000	1.565473 
3574.000000	1.559450 
3572.000000	1.555987 
3570.000000	1.556486 
3568.000000	1.562937 
3566.000000	1.566956 
3564.000000	1.564773 
3562.000000	1.563020 
3560.000000	1.561886 
3558.000000	1.563380 
3556.000000	1.563372 
3554.000000	1.556930 
3552.000000	1.557861 
3550.000000	1.562835 
3548.000000	1.563778 
3546.000000	1.564070 
3544.000000	1.565077 
3542.000000	1.562752 
3540.000000	1.562755 
3538.000000	1.566250 
3536.000000	1.568840 
3534.000000	1.565142 
3532.000000	1.565248 
3530.000000	1.566464 
3528.000000	1.564530 
3526.000000	1.567335 
3524.000000	1.570539 
3522.000000	1.566777 
3520.000000	1.559747 
3518.000000	1.559653 
3516.000000	1.556598 
3514.000000	1.551334 
3512.000000	1.554507 
3510.000000	1.560269 
3508.000000	1.562922 
3506.000000	1.556639 
3504.000000	1.550446 
3502.000000	1.554422 
3500.000000	1.560608 
3498.000000	1.560589 
3496.000000	1.558509 
3494.000000	1.559258 
3492.000000	1.557857 
3490.000000	1.558209 
3488.000000	1.561965 
3486.000000	1.560344 
3484.000000	1.555176 
3482.000000	1.557936 
3480.000000	1.560977 
3478.000000	1.559446 
3476.000000	1.556296 
3474.000000	1.553780 
3472.000000	1.556263 
3470.000000	1.560988 
3468.000000	1.557255 
3466.000000	1.549902 
3464.000000	1.548392 
3462.000000	1.550075 
3460.000000	1.548494 
3458.000000	1.546660 
3456.000000	1.547164 
3454.000000	1.547967 
3452.000000	1.549139 
3450.000000	1.551083 
3448.000000	1.551223 
3446.000000	1.549187 
3444.000000	1.546139 
3442.000000	1.544678 
3440.000000	1.550189 
3438.000000	1.555797 
3436.000000	1.552355 
3434.000000	1.543012 
3432.000000	1.537162 
3430.000000	1.540154 
3428.000000	1.544427 
3426.000000	1.545121 
3424.000000	1.543916 
3422.000000	1.545913 
3420.000000	1.544195 
3418.000000	1.540377 
3416.000000	1.540208 
3414.000000	1.544366 
3412.000000	1.546726 
3410.000000	1.543178 
3408.000000	1.540560 
3406.000000	1.541918 
3404.000000	1.542065 
3402.000000	1.542733 
3400.000000	1.544870 
3398.000000	1.543406 
3396.000000	1.541615 
3394.000000	1.541946 
3392.000000	1.541514 
3390.000000	1.536916 
3388.000000	1.534619 
3386.000000	1.536805 
3384.000000	1.537276 
3382.000000	1.534105 
3380.000000	1.532567 
3378.000000	1.533581 
3376.000000	1.533069 
3374.000000	1.535994 
3372.000000	1.538008 
3370.000000	1.535197 
3368.000000	1.529273 
3366.000000	1.526306 
3364.000000	1.531203 
3362.000000	1.534031 
3360.000000	1.532938 
3358.000000	1.532504 
3356.000000	1.528555 
3354.000000	1.528692 
3352.000000	1.531756 
3350.000000	1.529353 
3348.000000	1.527752 
3346.000000	1.529385 
3344.000000	1.531323 
3342.000000	1.532733 
3340.000000	1.528678 
3338.000000	1.522551 
3336.000000	1.523348 
3334.000000	1.524594 
3332.000000	1.524469 
3330.000000	1.525083 
3328.000000	1.527574 
3326.000000	1.529122 
3324.000000	1.523701 
3322.000000	1.515877 
3320.000000	1.518036 
3318.000000	1.523774 
3316.000000	1.523220 
3314.000000	1.518787 
3312.000000	1.516989 
3310.000000	1.519088 
3308.000000	1.521332 
3306.000000	1.521431 
3304.000000	1.518760 
3302.000000	1.517783 
3300.000000	1.519506 
3298.000000	1.520617 
3296.000000	1.520198 
3294.000000	1.517224 
3292.000000	1.516499 
3290.000000	1.517275 
3288.000000	1.517381 
3286.000000	1.514866 
3284.000000	1.510937 
3282.000000	1.511898 
3280.000000	1.515789 
3278.000000	1.514832 
3276.000000	1.516509 
3274.000000	1.515782 
3272.000000	1.508709 
3270.000000	1.510829 
3268.000000	1.513104 
3266.000000	1.508486 
3264.000000	1.507828 
3262.000000	1.510158 
3260.000000	1.508780 
3258.000000	1.509652 
3256.000000	1.510212 
3254.000000	1.506580 
3252.000000	1.503417 
3250.000000	1.505677 
3248.000000	1.509090 
3246.000000	1.507006 
3244.000000	1.504540 
3242.000000	1.504236 
3240.000000	1.504573 
3238.000000	1.506334 
3236.000000	1.505464 
3234.000000	1.502655 
3232.000000	1.501622 
3230.000000	1.501333 
3228.000000	1.500276 
3226.000000	1.498984 
3224.000000	1.498814 
3222.000000	1.498436 
3220.000000	1.497976 
3218.000000	1.499716 
3216.000000	1.502270 
3214.000000	1.502089 
3212.000000	1.496772 
3210.000000	1.497461 
3208.000000	1.501346 
3206.000000	1.499295 
3204.000000	1.499775 
3202.000000	1.499648 
3200.000000	1.499471 
3198.000000	1.499105 
3196.000000	1.495827 
3194.000000	1.497478 
3192.000000	1.500837 
3190.000000	1.498315 
3188.000000	1.493498 
3186.000000	1.492470 
3184.000000	1.494735 
3182.000000	1.495837 
3180.000000	1.498331 
3178.000000	1.497500 
3176.000000	1.492750 
3174.000000	1.495017 
3172.000000	1.500752 
3170.000000	1.501859 
3168.000000	1.498811 
3166.000000	1.494503 
3164.000000	1.492654 
3162.000000	1.494852 
3160.000000	1.500470 
3158.000000	1.502777 
3156.000000	1.500647 
3154.000000	1.497471 
3152.000000	1.494021 
3150.000000	1.489734 
3148.000000	1.489376 
3146.000000	1.489459 
3144.000000	1.489485 
3142.000000	1.490586 
3140.000000	1.490858 
3138.000000	1.487212 
3136.000000	1.484771 
3134.000000	1.485936 
3132.000000	1.488441 
3130.000000	1.487291 
3128.000000	1.483943 
3126.000000	1.484486 
3124.000000	1.487845 
3122.000000	1.492825 
3120.000000	1.494118 
3118.000000	1.491689 
3116.000000	1.491641 
3114.000000	1.491121 
3112.000000	1.484983 
3110.000000	1.482626 
3108.000000	1.484085 
3106.000000	1.482831 
3104.000000	1.483057 
3102.000000	1.483615 
3100.000000	1.482299 
3098.000000	1.483442 
3096.000000	1.483965 
3094.000000	1.481034 
3092.000000	1.479557 
3090.000000	1.480624 
3088.000000	1.481376 
3086.000000	1.481872 
3084.000000	1.481957 
3082.000000	1.481357 
3080.000000	1.483013 
3078.000000	1.483360 
3076.000000	1.480542 
3074.000000	1.477786 
3072.000000	1.477398 
3070.000000	1.478390 
3068.000000	1.481144 
3066.000000	1.483445 
3064.000000	1.480038 
3062.000000	1.478446 
3060.000000	1.480545 
3058.000000	1.478462 
3056.000000	1.475258 
3054.000000	1.477768 
3052.000000	1.478222 
3050.000000	1.476839 
3048.000000	1.475803 
3046.000000	1.477472 
3044.000000	1.479101 
3042.000000	1.477951 
3040.000000	1.475274 
3038.000000	1.475159 
3036.000000	1.475469 
3034.000000	1.474600 
3032.000000	1.472465 
3030.000000	1.471679 
3028.000000	1.474183 
3026.000000	1.476073 
3024.000000	1.473662 
3022.000000	1.473505 
3020.000000	1.475611 
3018.000000	1.474934 
3016.000000	1.474390 
3014.000000	1.472852 
3012.000000	1.470469 
3010.000000	1.472917 
3008.000000	1.476392 
3006.000000	1.476014 
3004.000000	1.475190 
3002.000000	1.471762 
3000.000000	1.471842 
2998.000000	1.474526 
2996.000000	1.475447 
2994.000000	1.479960 
2992.000000	1.484493 
2990.000000	1.482743 
2988.000000	1.480975 
2986.000000	1.483568 
2984.000000	1.486024 
2982.000000	1.486091 
2980.000000	1.486932 
2978.000000	1.486999 
2976.000000	1.489760 
2974.000000	1.494173 
2972.000000	1.499288 
2970.000000	1.502648 
2968.000000	1.501080 
2966.000000	1.501766 
2964.000000	1.505285 
2962.000000	1.510396 
2960.000000	1.513479 
2958.000000	1.511350 
2956.000000	1.509927 
2954.000000	1.509371 
2952.000000	1.509114 
2950.000000	1.512545 
2948.000000	1.516370 
2946.000000	1.515629 
2944.000000	1.515022 
2942.000000	1.517671 
2940.000000	1.520212 
2938.000000	1.526897 
2936.000000	1.533129 
2934.000000	1.537315 
2932.000000	1.542159 
2930.000000	1.545342 
2928.000000	1.547704 
2926.000000	1.549550 
2924.000000	1.546835 
2922.000000	1.539200 
2920.000000	1.532461 
2918.000000	1.528674 
2916.000000	1.524812 
2914.000000	1.513912 
2912.000000	1.505275 
2910.000000	1.503169 
2908.000000	1.502237 
2906.000000	1.500450 
2904.000000	1.496369 
2902.000000	1.492548 
2900.000000	1.489958 
2898.000000	1.487498 
2896.000000	1.485378 
2894.000000	1.485540 
2892.000000	1.484474 
2890.000000	1.482393 
2888.000000	1.480476 
2886.000000	1.482120 
2884.000000	1.480837 
2882.000000	1.474733 
2880.000000	1.473182 
2878.000000	1.478228 
2876.000000	1.480611 
2874.000000	1.479126 
2872.000000	1.478546 
2870.000000	1.478521 
2868.000000	1.479813 
2866.000000	1.482639 
2864.000000	1.486891 
2862.000000	1.491545 
2860.000000	1.493540 
2858.000000	1.492950 
2856.000000	1.491015 
2854.000000	1.489571 
2852.000000	1.486529 
2850.000000	1.478833 
2848.000000	1.473613 
2846.000000	1.468902 
2844.000000	1.460675 
2842.000000	1.458917 
2840.000000	1.463733 
2838.000000	1.461073 
2836.000000	1.454026 
2834.000000	1.452181 
2832.000000	1.450386 
2830.000000	1.448969 
2828.000000	1.447420 
2826.000000	1.444080 
2824.000000	1.443507 
2822.000000	1.443211 
2820.000000	1.440476 
2818.000000	1.436664 
2816.000000	1.435001 
2814.000000	1.435788 
2812.000000	1.437994 
2810.000000	1.440279 
2808.000000	1.438670 
2806.000000	1.436506 
2804.000000	1.436144 
2802.000000	1.436956 
2800.000000	1.439173 
2798.000000	1.440744 
2796.000000	1.437715 
2794.000000	1.432745 
2792.000000	1.433133 
2790.000000	1.435266 
2788.000000	1.433253 
2786.000000	1.432989 
2784.000000	1.435223 
2782.000000	1.434941 
2780.000000	1.430960 
2778.000000	1.425674 
2776.000000	1.428001 
2774.000000	1.432328 
2772.000000	1.433003 
2770.000000	1.433574 
2768.000000	1.432717 
2766.000000	1.432314 
2764.000000	1.432838 
2762.000000	1.432832 
2760.000000	1.430803 
2758.000000	1.431768 
2756.000000	1.431027 
2754.000000	1.429404 
2752.000000	1.432504 
2750.000000	1.433874 
2748.000000	1.431997 
2746.000000	1.430156 
2744.000000	1.429599 
2742.000000	1.425674 
2740.000000	1.420602 
2738.000000	1.422093 
2736.000000	1.425555 
2734.000000	1.428748 
2732.000000	1.429629 
2730.000000	1.429371 
2728.000000	1.429332 
2726.000000	1.428839 
2724.000000	1.427291 
2722.000000	1.423165 
2720.000000	1.420626 
2718.000000	1.422447 
2716.000000	1.424635 
2714.000000	1.426077 
2712.000000	1.429245 
2710.000000	1.428284 
2708.000000	1.423695 
2706.000000	1.422219 
2704.000000	1.423335 
2702.000000	1.423225 
2700.000000	1.422414 
2698.000000	1.421899 
2696.000000	1.421268 
2694.000000	1.421287 
2692.000000	1.420771 
2690.000000	1.420163 
2688.000000	1.419733 
2686.000000	1.419327 
2684.000000	1.420768 
2682.000000	1.422863 
2680.000000	1.423604 
2678.000000	1.420782 
2676.000000	1.415901 
2674.000000	1.415871 
2672.000000	1.420850 
2670.000000	1.423296 
2668.000000	1.418898 
2666.000000	1.415712 
2664.000000	1.415232 
2662.000000	1.412876 
2660.000000	1.411424 
2658.000000	1.413396 
2656.000000	1.412432 
2654.000000	1.411996 
2652.000000	1.413571 
2650.000000	1.413158 
2648.000000	1.411371 
2646.000000	1.411763 
2644.000000	1.412721 
2642.000000	1.411817 
2640.000000	1.410592 
2638.000000	1.408696 
2636.000000	1.407559 
2634.000000	1.406441 
2632.000000	1.405979 
2630.000000	1.407167 
2628.000000	1.405265 
2626.000000	1.404581 
2624.000000	1.408521 
2622.000000	1.409142 
2620.000000	1.406810 
2618.000000	1.405544 
2616.000000	1.406829 
2614.000000	1.407088 
2612.000000	1.405884 
2610.000000	1.406876 
2608.000000	1.406911 
2606.000000	1.405721 
2604.000000	1.403526 
2602.000000	1.399127 
2600.000000	1.399639 
2598.000000	1.402219 
2596.000000	1.402392 
2594.000000	1.402193 
2592.000000	1.402795 
2590.000000	1.402562 
2588.000000	1.402727 
2586.000000	1.403353 
2584.000000	1.401326 
2582.000000	1.398388 
2580.000000	1.398665 
2578.000000	1.399626 
2576.000000	1.398735 
2574.000000	1.396224 
2572.000000	1.395426 
2570.000000	1.396034 
2568.000000	1.394223 
2566.000000	1.394026 
2564.000000	1.395161 
2562.000000	1.395328 
2560.000000	1.394061 
2558.000000	1.392111 
2556.000000	1.391998 
2554.000000	1.391368 
2552.000000	1.391557 
2550.000000	1.391195 
2548.000000	1.391220 
2546.000000	1.393223 
2544.000000	1.394233 
2542.000000	1.392811 
2540.000000	1.390945 
2538.000000	1.390721 
2536.000000	1.391884 
2534.000000	1.392660 
2532.000000	1.391414 
2530.000000	1.391266 
2528.000000	1.391325 
2526.000000	1.388750 
2524.000000	1.386826 
2522.000000	1.386770 
2520.000000	1.387765 
2518.000000	1.389206 
2516.000000	1.389300 
2514.000000	1.385354 
2512.000000	1.384277 
2510.000000	1.386624 
2508.000000	1.387806 
2506.000000	1.388345 
2504.000000	1.387040 
2502.000000	1.386092 
2500.000000	1.386775 
2498.000000	1.384583 
2496.000000	1.382825 
2494.000000	1.384119 
2492.000000	1.384413 
2490.000000	1.382517 
2488.000000	1.380657 
2486.000000	1.382108 
2484.000000	1.383703 
2482.000000	1.384119 
2480.000000	1.383463 
2478.000000	1.382105 
2476.000000	1.380118 
2474.000000	1.378806 
2472.000000	1.378501 
2470.000000	1.378147 
2468.000000	1.376205 
2466.000000	1.375229 
2464.000000	1.375715 
2462.000000	1.375627 
2460.000000	1.375005 
2458.000000	1.374725 
2456.000000	1.375361 
2454.000000	1.374779 
2452.000000	1.374473 
2450.000000	1.376262 
2448.000000	1.375177 
2446.000000	1.374895 
2444.000000	1.376072 
2442.000000	1.374458 
2440.000000	1.374252 
2438.000000	1.375334 
2436.000000	1.374387 
2434.000000	1.373395 
2432.000000	1.371988 
2430.000000	1.371705 
2428.000000	1.373138 
2426.000000	1.371223 
2424.000000	1.368537 
2422.000000	1.366926 
2420.000000	1.367249 
2418.000000	1.370323 
2416.000000	1.371282 
2414.000000	1.370496 
2412.000000	1.370338 
2410.000000	1.367471 
2408.000000	1.365956 
2406.000000	1.369040 
2404.000000	1.370088 
2402.000000	1.365615 
2400.000000	1.362292 
2398.000000	1.362951 
2396.000000	1.364633 
2394.000000	1.363744 
2392.000000	1.362051 
2390.000000	1.362271 
2388.000000	1.361068 
2386.000000	1.359236 
2384.000000	1.357912 
2382.000000	1.358047 
2380.000000	1.358917 
2378.000000	1.359656 
2376.000000	1.358865 
2374.000000	1.359336 
2372.000000	1.360135 
2370.000000	1.360398 
2368.000000	1.362187 
2366.000000	1.358941 
2364.000000	1.356247 
2362.000000	1.361192 
2360.000000	1.364760 
2358.000000	1.364434 
2356.000000	1.366958 
2354.000000	1.368061 
2352.000000	1.366668 
2350.000000	1.361701 
2348.000000	1.355014 
2346.000000	1.355220 
2344.000000	1.358449 
2342.000000	1.357787 
2340.000000	1.356541 
2338.000000	1.357934 
2336.000000	1.359270 
2334.000000	1.357832 
2332.000000	1.357287 
2330.000000	1.358668 
2328.000000	1.361325 
2326.000000	1.363998 
2324.000000	1.365142 
2322.000000	1.365596 
2320.000000	1.363278 
2318.000000	1.361423 
2316.000000	1.360142 
2314.000000	1.360412 
2312.000000	1.362968 
2310.000000	1.363486 
2308.000000	1.363369 
2306.000000	1.362641 
2304.000000	1.362256 
2302.000000	1.364223 
2300.000000	1.366418 
2298.000000	1.368164 
2296.000000	1.370824 
2294.000000	1.374345 
2292.000000	1.375959 
2290.000000	1.375516 
2288.000000	1.378427 
2286.000000	1.382015 
2284.000000	1.385782 
2282.000000	1.388337 
2280.000000	1.390235 
2278.000000	1.395346 
2276.000000	1.400042 
2274.000000	1.402651 
2272.000000	1.405286 
2270.000000	1.411117 
2268.000000	1.415761 
2266.000000	1.421109 
2264.000000	1.428434 
2262.000000	1.433270 
2260.000000	1.436048 
2258.000000	1.439643 
2256.000000	1.439982 
2254.000000	1.438170 
2252.000000	1.437724 
2250.000000	1.441325 
2248.000000	1.443852 
2246.000000	1.441668 
2244.000000	1.441002 
2242.000000	1.439241 
2240.000000	1.437715 
2238.000000	1.437287 
2236.000000	1.434961 
2234.000000	1.432513 
2232.000000	1.431717 
2230.000000	1.429986 
2228.000000	1.429290 
2226.000000	1.428959 
2224.000000	1.427657 
2222.000000	1.427424 
2220.000000	1.428312 
2218.000000	1.431113 
2216.000000	1.432311 
2214.000000	1.434409 
2212.000000	1.437869 
2210.000000	1.441992 
2208.000000	1.445510 
2206.000000	1.450042 
2204.000000	1.453067 
2202.000000	1.452368 
2200.000000	1.455076 
2198.000000	1.459388 
2196.000000	1.458810 
2194.000000	1.455188 
2192.000000	1.454197 
2190.000000	1.452870 
2188.000000	1.448768 
2186.000000	1.444293 
2184.000000	1.444177 
2182.000000	1.443881 
2180.000000	1.439811 
2178.000000	1.435613 
2176.000000	1.432347 
2174.000000	1.427901 
2172.000000	1.424159 
2170.000000	1.423804 
2168.000000	1.424530 
2166.000000	1.424035 
2164.000000	1.423061 
2162.000000	1.423382 
2160.000000	1.425128 
2158.000000	1.428017 
2156.000000	1.431261 
2154.000000	1.433001 
2152.000000	1.433534 
2150.000000	1.434105 
2148.000000	1.436766 
2146.000000	1.441084 
2144.000000	1.442330 
2142.000000	1.438030 
2140.000000	1.432510 
2138.000000	1.431583 
2136.000000	1.433633 
2134.000000	1.432546 
2132.000000	1.431077 
2130.000000	1.429950 
2128.000000	1.430519 
2126.000000	1.433818 
2124.000000	1.434502 
2122.000000	1.438289 
2120.000000	1.444932 
2118.000000	1.450445 
2116.000000	1.451307 
2114.000000	1.450080 
2112.000000	1.447748 
2110.000000	1.443493 
2108.000000	1.437959 
2106.000000	1.433683 
2104.000000	1.429179 
2102.000000	1.423920 
2100.000000	1.417826 
2098.000000	1.412031 
2096.000000	1.410307 
2094.000000	1.413182 
2092.000000	1.418371 
2090.000000	1.419730 
2088.000000	1.416833 
2086.000000	1.412686 
2084.000000	1.407384 
2082.000000	1.400924 
2080.000000	1.395779 
2078.000000	1.392448 
2076.000000	1.384766 
2074.000000	1.373870 
2072.000000	1.364765 
2070.000000	1.355685 
2068.000000	1.345644 
2066.000000	1.335584 
2064.000000	1.329200 
2062.000000	1.322103 
2060.000000	1.314766 
2058.000000	1.309396 
2056.000000	1.304304 
2054.000000	1.298599 
2052.000000	1.293563 
2050.000000	1.291358 
2048.000000	1.291129 
2046.000000	1.290023 
2044.000000	1.288763 
2042.000000	1.288085 
2040.000000	1.286458 
2038.000000	1.284490 
2036.000000	1.283287 
2034.000000	1.281071 
2032.000000	1.279953 
2030.000000	1.281682 
2028.000000	1.282041 
2026.000000	1.280254 
2024.000000	1.279706 
2022.000000	1.279337 
2020.000000	1.277407 
2018.000000	1.276021 
2016.000000	1.275626 
2014.000000	1.273489 
2012.000000	1.272080 
2010.000000	1.273226 
2008.000000	1.274366 
2006.000000	1.273821 
2004.000000	1.273425 
2002.000000	1.271793 
2000.000000	1.268803 
1998.000000	1.268461 
1996.000000	1.267436 
1994.000000	1.265426 
1992.000000	1.265573 
1990.000000	1.265205 
1988.000000	1.264911 
1986.000000	1.265024 
1984.000000	1.264376 
1982.000000	1.263285 
1980.000000	1.262252 
1978.000000	1.263274 
1976.000000	1.263076 
1974.000000	1.261686 
1972.000000	1.261362 
1970.000000	1.259405 
1968.000000	1.257561 
1966.000000	1.256554 
1964.000000	1.255984 
1962.000000	1.256685 
1960.000000	1.257509 
1958.000000	1.257261 
1956.000000	1.255996 
1954.000000	1.255607 
1952.000000	1.254694 
1950.000000	1.252644 
1948.000000	1.251751 
1946.000000	1.250532 
1944.000000	1.249247 
1942.000000	1.251399 
1940.000000	1.251665 
1938.000000	1.249503 
1936.000000	1.248142 
1934.000000	1.247633 
1932.000000	1.246714 
1930.000000	1.245947 
1928.000000	1.245829 
1926.000000	1.244692 
1924.000000	1.244794 
1922.000000	1.244102 
1920.000000	1.241676 
1918.000000	1.243410 
1916.000000	1.244024 
1914.000000	1.242573 
1912.000000	1.242464 
1910.000000	1.242591 
1908.000000	1.241163 
1906.000000	1.239847 
1904.000000	1.238704 
1902.000000	1.238256 
1900.000000	1.237715 
1898.000000	1.238288 
1896.000000	1.237978 
1894.000000	1.236250 
1892.000000	1.232162 
1890.000000	1.231029 
1888.000000	1.232610 
1886.000000	1.233575 
1884.000000	1.233660 
1882.000000	1.232597 
1880.000000	1.231465 
1878.000000	1.231421 
1876.000000	1.231558 
1874.000000	1.229841 
1872.000000	1.225276 
1870.000000	1.222870 
1868.000000	1.226263 
1866.000000	1.227880 
1864.000000	1.224785 
1862.000000	1.222711 
1860.000000	1.224586 
1858.000000	1.225422 
1856.000000	1.224376 
1854.000000	1.223675 
1852.000000	1.223436 
1850.000000	1.222089 
1848.000000	1.220077 
1846.000000	1.217988 
1844.000000	1.220830 
1842.000000	1.219882 
1840.000000	1.216965 
1838.000000	1.217886 
1836.000000	1.217928 
1834.000000	1.215158 
1832.000000	1.212547 
1830.000000	1.214890 
1828.000000	1.214886 
1826.000000	1.212235 
1824.000000	1.212816 
1822.000000	1.211638 
1820.000000	1.209554 
1818.000000	1.210201 
1816.000000	1.211370 
1814.000000	1.209452 
1812.000000	1.207785 
1810.000000	1.207058 
1808.000000	1.205922 
1806.000000	1.206628 
1804.000000	1.206212 
1802.000000	1.205168 
1800.000000	1.206710 
1798.000000	1.205362 
1796.000000	1.200838 
1794.000000	1.197024 
1792.000000	1.201171 
1790.000000	1.201627 
1788.000000	1.197765 
1786.000000	1.196993 
1784.000000	1.198229 
1782.000000	1.197536 
1780.000000	1.196772 
1778.000000	1.194097 
1776.000000	1.190895 
1774.000000	1.188685 
1772.000000	1.190637 
1770.000000	1.190980 
1768.000000	1.192057 
1766.000000	1.191948 
1764.000000	1.187725 
1762.000000	1.188311 
1760.000000	1.188603 
1758.000000	1.187114 
1756.000000	1.187988 
1754.000000	1.182848 
1752.000000	1.183268 
1750.000000	1.187580 
1748.000000	1.186355 
1746.000000	1.184453 
1744.000000	1.183131 
1742.000000	1.181518 
1740.000000	1.184597 
1738.000000	1.184963 
1736.000000	1.177691 
1734.000000	1.183598 
1732.000000	1.184869 
1730.000000	1.181901 
1728.000000	1.182461 
1726.000000	1.182402 
1724.000000	1.182396 
1722.000000	1.179001 
1720.000000	1.172934 
1718.000000	1.174030 
1716.000000	1.179501 
1714.000000	1.180035 
1712.000000	1.177828 
1710.000000	1.175332 
1708.000000	1.171108 
1706.000000	1.169384 
1704.000000	1.164734 
1702.000000	1.157541 
1700.000000	1.164808 
1698.000000	1.161921 
1696.000000	1.161305 
1694.000000	1.161868 
1692.000000	1.156996 
1690.000000	1.154424 
1688.000000	1.149116 
1686.000000	1.142566 
1684.000000	1.150973 
1682.000000	1.151833 
1680.000000	1.147792 
1678.000000	1.144666 
1676.000000	1.143410 
1674.000000	1.145850 
1672.000000	1.139877 
1670.000000	1.139226 
1668.000000	1.142877 
1666.000000	1.138701 
1664.000000	1.135583 
1662.000000	1.138045 
1660.000000	1.135504 
1658.000000	1.131181 
1656.000000	1.122992 
1654.000000	1.120578 
1652.000000	1.135047 
1650.000000	1.128338 
1648.000000	1.123478 
1646.000000	1.128751 
1644.000000	1.128299 
1642.000000	1.125792 
1640.000000	1.122806 
1638.000000	1.115545 
1636.000000	1.118782 
1634.000000	1.125941 
1632.000000	1.122917 
1630.000000	1.117990 
1628.000000	1.116726 
1626.000000	1.114250 
1624.000000	1.111293 
1622.000000	1.115464 
1620.000000	1.113750 
1618.000000	1.109627 
1616.000000	1.113083 
1614.000000	1.112350 
1612.000000	1.108633 
1610.000000	1.107788 
1608.000000	1.108316 
1606.000000	1.107211 
1604.000000	1.104272 
1602.000000	1.103547 
1600.000000	1.103588 
1598.000000	1.102784 
1596.000000	1.101410 
1594.000000	1.098704 
1592.000000	1.097319 
1590.000000	1.096398 
1588.000000	1.095240 
1586.000000	1.093465 
1584.000000	1.091080 
1582.000000	1.089892 
1580.000000	1.087631 
1578.000000	1.082010 
1576.000000	1.086992 
1574.000000	1.088928 
1572.000000	1.081680 
1570.000000	1.080288 
1568.000000	1.082988 
1566.000000	1.080176 
1564.000000	1.078109 
1562.000000	1.070282 
1560.000000	1.066033 
1558.000000	1.077724 
1556.000000	1.076352 
1554.000000	1.074790 
1552.000000	1.071909 
1550.000000	1.071322 
1548.000000	1.069138 
1546.000000	1.062910 
1544.000000	1.059866 
1542.000000	1.056611 
1540.000000	1.060388 
1538.000000	1.065782 
1536.000000	1.059558 
1534.000000	1.059006 
1532.000000	1.061911 
1530.000000	1.057977 
1528.000000	1.054058 
1526.000000	1.052989 
1524.000000	1.049956 
1522.000000	1.048523 
1520.000000	1.050935 
1518.000000	1.047380 
1516.000000	1.050040 
1514.000000	1.048749 
1512.000000	1.045052 
1510.000000	1.039653 
1508.000000	1.036748 
1506.000000	1.048000 
1504.000000	1.048200 
1502.000000	1.042629 
1500.000000	1.038897 
1498.000000	1.037678 
1496.000000	1.041688 
1494.000000	1.041544 
1492.000000	1.037288 
1490.000000	1.037023 
1488.000000	1.038458 
1486.000000	1.037095 
1484.000000	1.034863 
1482.000000	1.035267 
1480.000000	1.035862 
1478.000000	1.032838 
1476.000000	1.029151 
1474.000000	1.027932 
1472.000000	1.036400 
1470.000000	1.038520 
1468.000000	1.033914 
1466.000000	1.032445 
1464.000000	1.034733 
1462.000000	1.030486 
1460.000000	1.022393 
1458.000000	1.021726 
1456.000000	1.030692 
1454.000000	1.028648 
1452.000000	1.023950 
1450.000000	1.021610 
1448.000000	1.022124 
1446.000000	1.022008 
1444.000000	1.019215 
1442.000000	1.016983 
1440.000000	1.013220 
1438.000000	1.009150 
1436.000000	1.010538 
1434.000000	1.008164 
1432.000000	1.004052 
1430.000000	1.003411 
1428.000000	1.002585 
1426.000000	0.999305 
1424.000000	0.997496 
1422.000000	0.993221 
1420.000000	0.989621 
1418.000000	0.991528 
1416.000000	0.990206 
1414.000000	0.988216 
1412.000000	0.986586 
1410.000000	0.984823 
1408.000000	0.982336 
1406.000000	0.980468 
1404.000000	0.979504 
1402.000000	0.976810 
1400.000000	0.973767 
1398.000000	0.973181 
1396.000000	0.972701 
1394.000000	0.971951 
1392.000000	0.969771 
1390.000000	0.967010 
1388.000000	0.966143 
1386.000000	0.966880 
1384.000000	0.965946 
1382.000000	0.964480 
1380.000000	0.962629 
1378.000000	0.960268 
1376.000000	0.957337 
1374.000000	0.956572 
1372.000000	0.954838 
1370.000000	0.952052 
1368.000000	0.949747 
1366.000000	0.946998 
1364.000000	0.944436 
1362.000000	0.943636 
1360.000000	0.942355 
1358.000000	0.940128 
1356.000000	0.938462 
1354.000000	0.937651 
1352.000000	0.935877 
1350.000000	0.933910 
1348.000000	0.930923 
1346.000000	0.928454 
1344.000000	0.927421 
1342.000000	0.925177 
1340.000000	0.922317 
1338.000000	0.920132 
1336.000000	0.918921 
1334.000000	0.918372 
1332.000000	0.917092 
1330.000000	0.914716 
1328.000000	0.912964 
1326.000000	0.912369 
1324.000000	0.911131 
1322.000000	0.909307 
1320.000000	0.907939 
1318.000000	0.906448 
1316.000000	0.905671 
1314.000000	0.904286 
1312.000000	0.902580 
1310.000000	0.900623 
1308.000000	0.899476 
1306.000000	0.898435 
1304.000000	0.897003 
1302.000000	0.895157 
1300.000000	0.893163 
1298.000000	0.891576 
1296.000000	0.890311 
1294.000000	0.888455 
1292.000000	0.886537 
1290.000000	0.884320 
1288.000000	0.881692 
1286.000000	0.880030 
1284.000000	0.878515 
1282.000000	0.876802 
1280.000000	0.875487 
1278.000000	0.873493 
1276.000000	0.871507 
1274.000000	0.870028 
1272.000000	0.868395 
1270.000000	0.867154 
1268.000000	0.866074 
1266.000000	0.864973 
1264.000000	0.863437 
1262.000000	0.861648 
1260.000000	0.859748 
1258.000000	0.858349 
1256.000000	0.857498 
1254.000000	0.856101 
1252.000000	0.853740 
1250.000000	0.852042 
1248.000000	0.851013 
1246.000000	0.850683 
1244.000000	0.849023 
1242.000000	0.847768 
1240.000000	0.848079 
1238.000000	0.847956 
1236.000000	0.847278 
1234.000000	0.847291 
1232.000000	0.848002 
1230.000000	0.848372 
1228.000000	0.848325 
1226.000000	0.848637 
1224.000000	0.849562 
1222.000000	0.851313 
1220.000000	0.853576 
1218.000000	0.856238 
1216.000000	0.859312 
1214.000000	0.862518 
1212.000000	0.866246 
1210.000000	0.870578 
1208.000000	0.876930 
1206.000000	0.883638 
1204.000000	0.889615 
1202.000000	0.896555 
1200.000000	0.904802 
1198.000000	0.912494 
1196.000000	0.920887 
1194.000000	0.930603 
1192.000000	0.939393 
1190.000000	0.947475 
1188.000000	0.956670 
1186.000000	0.966006 
1184.000000	0.975467 
1182.000000	0.986441 
1180.000000	0.997906 
1178.000000	1.009471 
1176.000000	1.019410 
1174.000000	1.027926 
1172.000000	1.037345 
1170.000000	1.047394 
1168.000000	1.057944 
1166.000000	1.068041 
1164.000000	1.077563 
1162.000000	1.087341 
1160.000000	1.096203 
1158.000000	1.105296 
1156.000000	1.115508 
1154.000000	1.124185 
1152.000000	1.131460 
1150.000000	1.138424 
1148.000000	1.144294 
1146.000000	1.151876 
1144.000000	1.160200 
1142.000000	1.167578 
1140.000000	1.174061 
1138.000000	1.178688 
1136.000000	1.184111 
1134.000000	1.190775 
1132.000000	1.194935 
1130.000000	1.197810 
1128.000000	1.200876 
1126.000000	1.206215 
1124.000000	1.212973 
1122.000000	1.217412 
1120.000000	1.220384 
1118.000000	1.223444 
1116.000000	1.229954 
1114.000000	1.238200 
1112.000000	1.241400 
1110.000000	1.243615 
1108.000000	1.247477 
1106.000000	1.250930 
1104.000000	1.257456 
1102.000000	1.263308 
1100.000000	1.269361 
1098.000000	1.275394 
1096.000000	1.278833 
1094.000000	1.281682 
1092.000000	1.283904 
1090.000000	1.288071 
1088.000000	1.292861 
1086.000000	1.295495 
1084.000000	1.297010 
1082.000000	1.299680 
1080.000000	1.303412 
1078.000000	1.308815 
1076.000000	1.313038 
1074.000000	1.312963 
1072.000000	1.314473 
1070.000000	1.317014 
1068.000000	1.319291 
1066.000000	1.319855 
1064.000000	1.320019 
1062.000000	1.323178 
1060.000000	1.322893 
1058.000000	1.320151 
1056.000000	1.317579 
1054.000000	1.312125 
1052.000000	1.306779 
1050.000000	1.303937 
1048.000000	1.301666 
1046.000000	1.298354 
1044.000000	1.294449 
1042.000000	1.285148 
1040.000000	1.273874 
1038.000000	1.265787 
1036.000000	1.255783 
1034.000000	1.242917 
1032.000000	1.230693 
1030.000000	1.218700 
1028.000000	1.204758 
1026.000000	1.190269 
1024.000000	1.175185 
1022.000000	1.158617 
1020.000000	1.140313 
1018.000000	1.120396 
1016.000000	1.100595 
1014.000000	1.080632 
1012.000000	1.059343 
1010.000000	1.037225 
1008.000000	1.015929 
1006.000000	0.994614 
1004.000000	0.973933 
1002.000000	0.953226 
1000.000000	0.932361 
998.000000	 0.914772 
996.000000	 0.901428 
994.000000	 0.891155 
992.000000	 0.884682 
990.000000	 0.883398 
988.000000	 0.888257 
986.000000	 0.897878 
984.000000	 0.908424 
982.000000	 0.917650 
980.000000	 0.922048 
978.000000	 0.919070 
976.000000	 0.909218 
974.000000	 0.892844 
972.000000	 0.872601 
970.000000	 0.851661 
968.000000	 0.830870 
966.000000	 0.813837 
964.000000	 0.800365 
962.000000	 0.788302 
960.000000	 0.778082 
958.000000	 0.769642 
956.000000	 0.762308 
954.000000	 0.757153 
952.000000	 0.756983 
950.000000	 0.761127 
948.000000	 0.766850 
946.000000	 0.774902 
944.000000	 0.784855 
942.000000	 0.793114 
940.000000	 0.797956 
938.000000	 0.799000 
936.000000	 0.796699 
934.000000	 0.792602 
932.000000	 0.786328 
930.000000	 0.779845 
928.000000	 0.773994 
926.000000	 0.766888 
924.000000	 0.759008 
922.000000	 0.752671 
920.000000	 0.748314 
918.000000	 0.743860 
916.000000	 0.737974 
914.000000	 0.732336 
912.000000	 0.728130 
910.000000	 0.726032 
908.000000	 0.724315 
906.000000	 0.720904 
904.000000	 0.717111 
902.000000	 0.713134 
900.000000	 0.709941 
898.000000	 0.709198 
896.000000	 0.711255 
894.000000	 0.717450 
892.000000	 0.728798 
890.000000	 0.743957 
888.000000	 0.761704 
886.000000	 0.780367 
884.000000	 0.799660 
882.000000	 0.817424 
880.000000	 0.832799 
878.000000	 0.845613 
876.000000	 0.855423 
874.000000	 0.862844 
872.000000	 0.867390 
870.000000	 0.871900 
868.000000	 0.874447 
866.000000	 0.872112 
864.000000	 0.869133 
862.000000	 0.867751 
860.000000	 0.864099 
858.000000	 0.858346 
856.000000	 0.853069 
854.000000	 0.848584 
852.000000	 0.844937 
850.000000	 0.843196 
848.000000	 0.840746 
846.000000	 0.838128 
844.000000	 0.835522 
842.000000	 0.832554 
840.000000	 0.829869 
838.000000	 0.825312 
836.000000	 0.817303 
834.000000	 0.805719 
832.000000	 0.791716 
830.000000	 0.775973 
828.000000	 0.757622 
826.000000	 0.736901 
824.000000	 0.716048 
822.000000	 0.696658 
820.000000	 0.679123 
818.000000	 0.663260 
816.000000	 0.650227 
814.000000	 0.638157 
812.000000	 0.627413 
810.000000	 0.618634 
808.000000	 0.610807 
806.000000	 0.604596 
804.000000	 0.598568 
802.000000	 0.591832 
800.000000	 0.584556 
798.000000	 0.576469 
796.000000	 0.568162 
794.000000	 0.559185 
792.000000	 0.549258 
790.000000	 0.539107 
788.000000	 0.528826 
786.000000	 0.519512 
784.000000	 0.510601 
782.000000	 0.501266 
780.000000	 0.492404 
778.000000	 0.484668 
776.000000	 0.477510 
774.000000	 0.470282 
772.000000	 0.463296 
770.000000	 0.456459 
768.000000	 0.450335 
766.000000	 0.445576 
764.000000	 0.441509 
762.000000	 0.437832 
760.000000	 0.434965 
758.000000	 0.432051 
756.000000	 0.429643 
754.000000	 0.428498 
752.000000	 0.428397 
750.000000	 0.428655 
748.000000	 0.428517 
746.000000	 0.428355 
744.000000	 0.428537 
742.000000	 0.429432 
740.000000	 0.431494 
738.000000	 0.434162 
736.000000	 0.436251 
734.000000	 0.437526 
732.000000	 0.438569 
730.000000	 0.439753 
728.000000	 0.440662 
726.000000	 0.442214 
724.000000	 0.444570 
722.000000	 0.446558 
720.000000	 0.449538 
718.000000	 0.453557 
716.000000	 0.457453 
714.000000	 0.461075 
712.000000	 0.464419 
710.000000	 0.466674 
708.000000	 0.467691 
706.000000	 0.466836 
704.000000	 0.462819 
702.000000	 0.457182 
700.000000	 0.450955 
698.000000	 0.444650 
696.000000	 0.439384 
694.000000	 0.435114 
692.000000	 0.431753 
690.000000	 0.430192 
688.000000	 0.430008 
686.000000	 0.430916 
684.000000	 0.432547 
682.000000	 0.434553 
680.000000	 0.437745 
678.000000	 0.441274 
676.000000	 0.444597 
674.000000	 0.448166 
672.000000	 0.451284 
670.000000	 0.453505 
668.000000	 0.456273 
666.000000	 0.453208 
664.000000	 0.446238 
662.000000	 0.439997 
660.000000	 0.435578 
658.000000	 0.431692 
656.000000	 0.427435 
654.000000	 0.424462 
652.000000	 0.423338 
650.000000	 0.422994 
648.000000	 0.423866 
646.000000	 0.426067 
644.000000	 0.428371 
642.000000	 0.432050 
640.000000	 0.435070 
638.000000	 0.437091 
636.000000	 0.439983 
634.000000	 0.442666 
632.000000	 0.442738 
630.000000	 0.437093 
628.000000	 0.427555 
626.000000	 0.417924 
624.000000	 0.407981 
622.000000	 0.398751 
620.000000	 0.386209 
618.000000	 0.366876 
616.000000	 0.346845 
614.000000	 0.327833 
612.000000	 0.310113 
610.000000	 0.297556 
608.000000	 0.286937 
606.000000	 0.274716 
604.000000	 0.262933 
602.000000	 0.253433 
600.000000	 0.243847 
598.000000	 0.232297 
596.000000	 0.222015 
594.000000	 0.213256 
592.000000	 0.204494 
590.000000	 0.196582 
588.000000	 0.190465 
586.000000	 0.184473 
584.000000	 0.178365 
582.000000	 0.172717 
580.000000	 0.167113 
578.000000	 0.161193 
576.000000	 0.155453 
574.000000	 0.150272 
572.000000	 0.145083 
570.000000	 0.140730 
568.000000	 0.137311 
566.000000	 0.134011 
564.000000	 0.130843 
562.000000	 0.127487 
560.000000	 0.124094 
558.000000	 0.121622 
556.000000	 0.119261 
554.000000	 0.116685 
552.000000	 0.114686 
550.000000	 0.113449 
548.000000	 0.112220 
546.000000	 0.111000 
544.000000	 0.109807 
542.000000	 0.109442 
540.000000	 0.109247 
538.000000	 0.109562 
536.000000	 0.109872 
534.000000	 0.109288 
532.000000	 0.109684 
530.000000	 0.110432 
528.000000	 0.110367 
526.000000	 0.110414 
524.000000	 0.111232 
522.000000	 0.111470 
520.000000	 0.110833 
518.000000	 0.110448 
516.000000	 0.111099 
514.000000	 0.112830 
512.000000	 0.114944 
510.000000	 0.116097 
508.000000	 0.115426 
506.000000	 0.115114 
504.000000	 0.115169 
502.000000	 0.115537 
500.000000	 0.115597 
498.000000	 0.114963 
496.000000	 0.115004 
494.000000	 0.115456 
492.000000	 0.116496 
490.000000	 0.117439 
488.000000	 0.119482 
486.000000	 0.121379 
484.000000	 0.123304 
482.000000	 0.124860 
480.000000	 0.127324 
478.000000	 0.130432 
476.000000	 0.133073 
474.000000	 0.133880 
472.000000	 0.134657 
470.000000	 0.139012 
468.000000	 0.143409 
466.000000	 0.145642 
464.000000	 0.146248 
462.000000	 0.146084 
460.000000	 0.146481 
458.000000	 0.146918 
456.000000	 0.146505 
454.000000	 0.146089 
452.000000	 0.146990 
450.000000	 0.147568 

