PE IR       SUBTECH     SPECTRUM    ASCII       PEDS        1.60        
  -1
1911A2.ASC
07/11/19
13:39:51.00
07/11/20
10:06:56.00
koro/arcerd
6min 200
450.000000
16









1004,02.19S
DTGS
MIR
KBR
52208
0.300000

4.000000
STRONG
RATIO
MAGNITUDE


DOUBLE SIDED
16
BIDIRECTIONAL
2




#HDR
-1
-1
#GR
CM-1
A
0.00000011920928955078
0.0
4400.000000
-2.000000
1976
8
1.629739
0.130527
#DATA
4400.000000	1.623812 
4398.000000	1.623747 
4396.000000	1.622620 
4394.000000	1.617943 
4392.000000	1.615095 
4390.000000	1.610776 
4388.000000	1.608597 
4386.000000	1.611838 
4384.000000	1.619358 
4382.000000	1.622308 
4380.000000	1.618820 
4378.000000	1.611106 
4376.000000	1.604238 
4374.000000	1.611089 
4372.000000	1.615210 
4370.000000	1.607757 
4368.000000	1.601996 
4366.000000	1.603622 
4364.000000	1.604046 
4362.000000	1.603801 
4360.000000	1.606985 
4358.000000	1.617475 
4356.000000	1.622798 
4354.000000	1.625164 
4352.000000	1.622395 
4350.000000	1.615830 
4348.000000	1.620887 
4346.000000	1.629739 
4344.000000	1.626354 
4342.000000	1.619332 
4340.000000	1.619130 
4338.000000	1.614660 
4336.000000	1.604704 
4334.000000	1.600817 
4332.000000	1.607304 
4330.000000	1.617917 
4328.000000	1.618626 
4326.000000	1.611305 
4324.000000	1.611893 
4322.000000	1.616797 
4320.000000	1.619552 
4318.000000	1.615860 
4316.000000	1.613162 
4314.000000	1.613430 
4312.000000	1.606969 
4310.000000	1.602174 
4308.000000	1.605234 
4306.000000	1.608492 
4304.000000	1.612775 
4302.000000	1.621592 
4300.000000	1.622855 
4298.000000	1.618897 
4296.000000	1.613119 
4294.000000	1.611229 
4292.000000	1.606860 
4290.000000	1.602157 
4288.000000	1.602451 
4286.000000	1.604159 
4284.000000	1.606165 
4282.000000	1.605864 
4280.000000	1.605964 
4278.000000	1.602621 
4276.000000	1.601743 
4274.000000	1.600776 
4272.000000	1.602999 
4270.000000	1.610404 
4268.000000	1.611415 
4266.000000	1.608383 
4264.000000	1.609835 
4262.000000	1.609304 
4260.000000	1.607283 
4258.000000	1.609514 
4256.000000	1.608731 
4254.000000	1.616078 
4252.000000	1.620200 
4250.000000	1.611186 
4248.000000	1.606462 
4246.000000	1.606123 
4244.000000	1.605547 
4242.000000	1.608660 
4240.000000	1.610992 
4238.000000	1.609430 
4236.000000	1.602680 
4234.000000	1.599283 
4232.000000	1.598650 
4230.000000	1.601024 
4228.000000	1.610252 
4226.000000	1.612453 
4224.000000	1.607115 
4222.000000	1.607937 
4220.000000	1.601230 
4218.000000	1.593698 
4216.000000	1.592627 
4214.000000	1.596821 
4212.000000	1.602406 
4210.000000	1.598395 
4208.000000	1.601975 
4206.000000	1.609987 
4204.000000	1.609472 
4202.000000	1.603626 
4200.000000	1.593726 
4198.000000	1.589067 
4196.000000	1.593048 
4194.000000	1.596678 
4192.000000	1.596690 
4190.000000	1.598523 
4188.000000	1.598864 
4186.000000	1.592457 
4184.000000	1.590367 
4182.000000	1.592635 
4180.000000	1.596670 
4178.000000	1.601710 
4176.000000	1.603880 
4174.000000	1.601458 
4172.000000	1.594487 
4170.000000	1.589179 
4168.000000	1.594902 
4166.000000	1.604167 
4164.000000	1.609729 
4162.000000	1.605630 
4160.000000	1.595240 
4158.000000	1.588862 
4156.000000	1.588693 
4154.000000	1.592031 
4152.000000	1.597452 
4150.000000	1.598905 
4148.000000	1.596408 
4146.000000	1.592234 
4144.000000	1.593572 
4142.000000	1.596298 
4140.000000	1.595277 
4138.000000	1.595881 
4136.000000	1.590299 
4134.000000	1.580632 
4132.000000	1.584254 
4130.000000	1.585022 
4128.000000	1.586114 
4126.000000	1.589232 
4124.000000	1.590625 
4122.000000	1.596449 
4120.000000	1.600380 
4118.000000	1.596625 
4116.000000	1.595130 
4114.000000	1.595334 
4112.000000	1.586814 
4110.000000	1.579077 
4108.000000	1.586894 
4106.000000	1.598133 
4104.000000	1.595697 
4102.000000	1.591522 
4100.000000	1.593808 
4098.000000	1.595881 
4096.000000	1.595416 
4094.000000	1.593479 
4092.000000	1.590924 
4090.000000	1.594650 
4088.000000	1.598309 
4086.000000	1.593499 
4084.000000	1.593523 
4082.000000	1.597010 
4080.000000	1.592031 
4078.000000	1.587426 
4076.000000	1.590904 
4074.000000	1.592623 
4072.000000	1.589356 
4070.000000	1.589429 
4068.000000	1.587002 
4066.000000	1.588316 
4064.000000	1.590807 
4062.000000	1.586114 
4060.000000	1.582330 
4058.000000	1.585034 
4056.000000	1.590682 
4054.000000	1.592817 
4052.000000	1.593320 
4050.000000	1.594829 
4048.000000	1.591716 
4046.000000	1.587722 
4044.000000	1.587911 
4042.000000	1.589055 
4040.000000	1.587967 
4038.000000	1.587826 
4036.000000	1.588685 
4034.000000	1.593519 
4032.000000	1.595281 
4030.000000	1.590823 
4028.000000	1.586766 
4026.000000	1.589328 
4024.000000	1.592270 
4022.000000	1.593897 
4020.000000	1.593828 
4018.000000	1.591429 
4016.000000	1.588328 
4014.000000	1.587034 
4012.000000	1.589111 
4010.000000	1.590976 
4008.000000	1.589710 
4006.000000	1.587562 
4004.000000	1.587666 
4002.000000	1.589220 
4000.000000	1.585803 
3998.000000	1.584067 
3996.000000	1.583626 
3994.000000	1.578422 
3992.000000	1.581575 
3990.000000	1.588733 
3988.000000	1.587006 
3986.000000	1.580592 
3984.000000	1.580494 
3982.000000	1.583348 
3980.000000	1.588549 
3978.000000	1.589988 
3976.000000	1.587482 
3974.000000	1.589827 
3972.000000	1.591106 
3970.000000	1.590512 
3968.000000	1.591797 
3966.000000	1.583095 
3964.000000	1.579207 
3962.000000	1.582002 
3960.000000	1.579663 
3958.000000	1.574688 
3956.000000	1.576988 
3954.000000	1.580462 
3952.000000	1.575357 
3950.000000	1.572721 
3948.000000	1.574641 
3946.000000	1.575046 
3944.000000	1.576032 
3942.000000	1.577998 
3940.000000	1.578143 
3938.000000	1.578151 
3936.000000	1.577501 
3934.000000	1.573205 
3932.000000	1.577289 
3930.000000	1.581749 
3928.000000	1.576828 
3926.000000	1.573942 
3924.000000	1.578394 
3922.000000	1.580253 
3920.000000	1.578520 
3918.000000	1.581290 
3916.000000	1.581480 
3914.000000	1.577661 
3912.000000	1.573864 
3910.000000	1.569228 
3908.000000	1.567205 
3906.000000	1.562162 
3904.000000	1.558707 
3902.000000	1.566239 
3900.000000	1.580182 
3898.000000	1.587602 
3896.000000	1.579309 
3894.000000	1.569270 
3892.000000	1.571638 
3890.000000	1.573352 
3888.000000	1.568495 
3886.000000	1.573860 
3884.000000	1.574731 
3882.000000	1.577110 
3880.000000	1.582544 
3878.000000	1.578061 
3876.000000	1.575435 
3874.000000	1.575954 
3872.000000	1.564408 
3870.000000	1.565195 
3868.000000	1.571148 
3866.000000	1.578735 
3864.000000	1.586386 
3862.000000	1.583575 
3860.000000	1.573364 
3858.000000	1.556151 
3856.000000	1.545335 
3854.000000	1.558112 
3852.000000	1.573352 
3850.000000	1.575829 
3848.000000	1.575030 
3846.000000	1.573127 
3844.000000	1.570809 
3842.000000	1.562048 
3840.000000	1.562937 
3838.000000	1.572183 
3836.000000	1.573573 
3834.000000	1.571800 
3832.000000	1.572969 
3830.000000	1.570578 
3828.000000	1.570678 
3826.000000	1.569646 
3824.000000	1.560025 
3822.000000	1.566719 
3820.000000	1.568690 
3818.000000	1.558198 
3816.000000	1.564590 
3814.000000	1.566926 
3812.000000	1.565629 
3810.000000	1.560153 
3808.000000	1.564355 
3806.000000	1.571391 
3804.000000	1.560273 
3802.000000	1.563808 
3800.000000	1.568717 
3798.000000	1.563596 
3796.000000	1.565701 
3794.000000	1.564123 
3792.000000	1.564188 
3790.000000	1.566517 
3788.000000	1.569877 
3786.000000	1.572961 
3784.000000	1.569942 
3782.000000	1.560420 
3780.000000	1.561943 
3778.000000	1.567174 
3776.000000	1.570697 
3774.000000	1.572682 
3772.000000	1.566071 
3770.000000	1.563695 
3768.000000	1.561331 
3766.000000	1.561588 
3764.000000	1.566838 
3762.000000	1.563354 
3760.000000	1.561214 
3758.000000	1.565640 
3756.000000	1.564545 
3754.000000	1.558467 
3752.000000	1.564070 
3750.000000	1.570177 
3748.000000	1.569193 
3746.000000	1.578343 
3744.000000	1.596870 
3742.000000	1.592222 
3740.000000	1.586474 
3738.000000	1.581140 
3736.000000	1.585647 
3734.000000	1.588155 
3732.000000	1.593621 
3730.000000	1.590037 
3728.000000	1.580399 
3726.000000	1.578963 
3724.000000	1.581448 
3722.000000	1.587686 
3720.000000	1.589566 
3718.000000	1.588822 
3716.000000	1.583463 
3714.000000	1.586366 
3712.000000	1.596024 
3710.000000	1.601921 
3708.000000	1.609081 
3706.000000	1.604100 
3704.000000	1.596604 
3702.000000	1.602054 
3700.000000	1.609911 
3698.000000	1.612326 
3696.000000	1.609152 
3694.000000	1.600248 
3692.000000	1.597010 
3690.000000	1.604496 
3688.000000	1.607904 
3686.000000	1.604596 
3684.000000	1.603938 
3682.000000	1.608816 
3680.000000	1.608105 
3678.000000	1.601483 
3676.000000	1.609047 
3674.000000	1.607711 
3672.000000	1.601214 
3670.000000	1.609325 
3668.000000	1.610426 
3666.000000	1.612253 
3664.000000	1.617239 
3662.000000	1.619979 
3660.000000	1.620770 
3658.000000	1.617779 
3656.000000	1.617196 
3654.000000	1.606730 
3652.000000	1.596637 
3650.000000	1.601044 
3648.000000	1.615142 
3646.000000	1.612614 
3644.000000	1.607073 
3642.000000	1.607988 
3640.000000	1.605225 
3638.000000	1.603643 
3636.000000	1.604005 
3634.000000	1.606429 
3632.000000	1.597423 
3630.000000	1.602058 
3628.000000	1.619027 
3626.000000	1.609885 
3624.000000	1.599555 
3622.000000	1.595351 
3620.000000	1.601367 
3618.000000	1.605472 
3616.000000	1.602095 
3614.000000	1.603963 
3612.000000	1.608870 
3610.000000	1.610949 
3608.000000	1.605092 
3606.000000	1.598597 
3604.000000	1.603319 
3602.000000	1.609531 
3600.000000	1.607371 
3598.000000	1.603356 
3596.000000	1.601987 
3594.000000	1.604433 
3592.000000	1.600314 
3590.000000	1.590980 
3588.000000	1.590113 
3586.000000	1.599670 
3584.000000	1.604225 
3582.000000	1.601073 
3580.000000	1.597448 
3578.000000	1.597583 
3576.000000	1.602543 
3574.000000	1.603161 
3572.000000	1.599390 
3570.000000	1.596457 
3568.000000	1.601420 
3566.000000	1.607132 
3564.000000	1.603867 
3562.000000	1.600301 
3560.000000	1.600281 
3558.000000	1.604533 
3556.000000	1.605522 
3554.000000	1.603689 
3552.000000	1.604971 
3550.000000	1.603364 
3548.000000	1.601185 
3546.000000	1.597055 
3544.000000	1.596330 
3542.000000	1.596167 
3540.000000	1.595086 
3538.000000	1.595110 
3536.000000	1.596265 
3534.000000	1.597903 
3532.000000	1.598346 
3530.000000	1.590577 
3528.000000	1.589429 
3526.000000	1.599609 
3524.000000	1.608046 
3522.000000	1.605396 
3520.000000	1.596895 
3518.000000	1.593621 
3516.000000	1.596625 
3514.000000	1.593633 
3512.000000	1.591283 
3510.000000	1.594654 
3508.000000	1.600553 
3506.000000	1.596715 
3504.000000	1.589759 
3502.000000	1.589557 
3500.000000	1.586322 
3498.000000	1.588713 
3496.000000	1.593495 
3494.000000	1.590553 
3492.000000	1.587750 
3490.000000	1.591138 
3488.000000	1.594976 
3486.000000	1.591615 
3484.000000	1.586970 
3482.000000	1.587078 
3480.000000	1.584469 
3478.000000	1.581014 
3476.000000	1.580434 
3474.000000	1.578944 
3472.000000	1.582393 
3470.000000	1.584166 
3468.000000	1.584863 
3466.000000	1.589799 
3464.000000	1.590093 
3462.000000	1.587951 
3460.000000	1.585991 
3458.000000	1.584612 
3456.000000	1.587867 
3454.000000	1.587859 
3452.000000	1.584437 
3450.000000	1.582366 
3448.000000	1.586038 
3446.000000	1.585141 
3444.000000	1.579915 
3442.000000	1.578080 
3440.000000	1.579962 
3438.000000	1.580896 
3436.000000	1.582172 
3434.000000	1.583646 
3432.000000	1.582877 
3430.000000	1.581899 
3428.000000	1.578892 
3426.000000	1.576707 
3424.000000	1.580454 
3422.000000	1.576676 
3420.000000	1.569989 
3418.000000	1.572578 
3416.000000	1.576746 
3414.000000	1.574855 
3412.000000	1.572914 
3410.000000	1.575891 
3408.000000	1.576371 
3406.000000	1.573655 
3404.000000	1.572535 
3402.000000	1.571133 
3400.000000	1.566227 
3398.000000	1.564666 
3396.000000	1.565720 
3394.000000	1.569005 
3392.000000	1.569946 
3390.000000	1.568280 
3388.000000	1.567480 
3386.000000	1.565556 
3384.000000	1.563918 
3382.000000	1.566189 
3380.000000	1.563615 
3378.000000	1.560589 
3376.000000	1.565888 
3374.000000	1.566155 
3372.000000	1.566307 
3370.000000	1.570994 
3368.000000	1.572608 
3366.000000	1.569466 
3364.000000	1.564279 
3362.000000	1.562665 
3360.000000	1.562740 
3358.000000	1.563111 
3356.000000	1.564070 
3354.000000	1.563858 
3352.000000	1.561554 
3350.000000	1.557375 
3348.000000	1.554953 
3346.000000	1.553310 
3344.000000	1.554106 
3342.000000	1.554388 
3340.000000	1.554474 
3338.000000	1.555224 
3336.000000	1.555909 
3334.000000	1.552315 
3332.000000	1.550332 
3330.000000	1.551584 
3328.000000	1.552540 
3326.000000	1.548234 
3324.000000	1.549414 
3322.000000	1.551853 
3320.000000	1.548875 
3318.000000	1.546616 
3316.000000	1.544638 
3314.000000	1.542618 
3312.000000	1.544787 
3310.000000	1.547164 
3308.000000	1.546467 
3306.000000	1.543098 
3304.000000	1.540970 
3302.000000	1.541842 
3300.000000	1.539903 
3298.000000	1.539824 
3296.000000	1.544029 
3294.000000	1.543120 
3292.000000	1.537844 
3290.000000	1.537619 
3288.000000	1.540165 
3286.000000	1.539544 
3284.000000	1.539318 
3282.000000	1.539978 
3280.000000	1.535777 
3278.000000	1.536065 
3276.000000	1.538341 
3274.000000	1.539168 
3272.000000	1.542217 
3270.000000	1.542697 
3268.000000	1.538598 
3266.000000	1.534683 
3264.000000	1.535585 
3262.000000	1.537322 
3260.000000	1.536182 
3258.000000	1.534318 
3256.000000	1.537080 
3254.000000	1.537876 
3252.000000	1.532956 
3250.000000	1.534403 
3248.000000	1.537112 
3246.000000	1.533988 
3244.000000	1.534385 
3242.000000	1.536499 
3240.000000	1.533323 
3238.000000	1.530385 
3236.000000	1.531524 
3234.000000	1.531467 
3232.000000	1.528510 
3230.000000	1.524882 
3228.000000	1.527082 
3226.000000	1.532666 
3224.000000	1.534038 
3222.000000	1.530058 
3220.000000	1.525138 
3218.000000	1.525204 
3216.000000	1.524882 
3214.000000	1.522423 
3212.000000	1.528297 
3210.000000	1.526957 
3208.000000	1.519150 
3206.000000	1.519701 
3204.000000	1.523189 
3202.000000	1.522527 
3200.000000	1.522647 
3198.000000	1.524345 
3196.000000	1.524185 
3194.000000	1.521628 
3192.000000	1.518452 
3190.000000	1.518931 
3188.000000	1.520188 
3186.000000	1.518114 
3184.000000	1.517139 
3182.000000	1.516867 
3180.000000	1.517381 
3178.000000	1.515063 
3176.000000	1.517057 
3174.000000	1.524469 
3172.000000	1.523341 
3170.000000	1.518135 
3168.000000	1.514914 
3166.000000	1.513702 
3164.000000	1.512164 
3162.000000	1.514910 
3160.000000	1.517323 
3158.000000	1.513388 
3156.000000	1.514423 
3154.000000	1.518254 
3152.000000	1.518719 
3150.000000	1.515300 
3148.000000	1.512268 
3146.000000	1.513979 
3144.000000	1.514633 
3142.000000	1.513675 
3140.000000	1.515107 
3138.000000	1.517828 
3136.000000	1.514961 
3134.000000	1.510188 
3132.000000	1.507435 
3130.000000	1.506254 
3128.000000	1.510614 
3126.000000	1.511888 
3124.000000	1.507625 
3122.000000	1.509147 
3120.000000	1.512198 
3118.000000	1.511168 
3116.000000	1.508860 
3114.000000	1.507898 
3112.000000	1.510423 
3110.000000	1.510319 
3108.000000	1.505285 
3106.000000	1.500752 
3104.000000	1.500876 
3102.000000	1.498925 
3100.000000	1.498684 
3098.000000	1.500844 
3096.000000	1.499851 
3094.000000	1.502214 
3092.000000	1.502760 
3090.000000	1.502550 
3088.000000	1.503354 
3086.000000	1.504097 
3084.000000	1.501770 
3082.000000	1.498064 
3080.000000	1.498224 
3078.000000	1.499985 
3076.000000	1.500650 
3074.000000	1.498413 
3072.000000	1.494777 
3070.000000	1.497969 
3068.000000	1.502655 
3066.000000	1.500594 
3064.000000	1.496064 
3062.000000	1.493489 
3060.000000	1.495665 
3058.000000	1.497484 
3056.000000	1.499030 
3054.000000	1.498481 
3052.000000	1.496492 
3050.000000	1.498031 
3048.000000	1.497025 
3046.000000	1.497181 
3044.000000	1.499543 
3042.000000	1.499726 
3040.000000	1.496700 
3038.000000	1.492480 
3036.000000	1.491885 
3034.000000	1.493992 
3032.000000	1.494299 
3030.000000	1.491985 
3028.000000	1.491490 
3026.000000	1.494832 
3024.000000	1.495422 
3022.000000	1.493266 
3020.000000	1.492104 
3018.000000	1.494829 
3016.000000	1.498638 
3014.000000	1.495214 
3012.000000	1.495409 
3010.000000	1.497406 
3008.000000	1.496093 
3006.000000	1.495762 
3004.000000	1.495804 
3002.000000	1.496200 
3000.000000	1.495201 
2998.000000	1.494393 
2996.000000	1.493856 
2994.000000	1.497299 
2992.000000	1.501757 
2990.000000	1.501658 
2988.000000	1.501247 
2986.000000	1.499121 
2984.000000	1.495636 
2982.000000	1.500407 
2980.000000	1.507362 
2978.000000	1.507468 
2976.000000	1.509810 
2974.000000	1.514558 
2972.000000	1.517841 
2970.000000	1.521810 
2968.000000	1.524802 
2966.000000	1.525485 
2964.000000	1.528195 
2962.000000	1.532793 
2960.000000	1.535389 
2958.000000	1.535151 
2956.000000	1.532271 
2954.000000	1.528349 
2952.000000	1.529883 
2950.000000	1.532162 
2948.000000	1.533606 
2946.000000	1.536531 
2944.000000	1.539218 
2942.000000	1.542083 
2940.000000	1.547839 
2938.000000	1.558127 
2936.000000	1.564739 
2934.000000	1.564803 
2932.000000	1.569477 
2930.000000	1.569512 
2928.000000	1.565507 
2926.000000	1.565545 
2924.000000	1.567641 
2922.000000	1.565766 
2920.000000	1.555771 
2918.000000	1.548901 
2916.000000	1.545553 
2914.000000	1.537862 
2912.000000	1.531725 
2910.000000	1.525416 
2908.000000	1.519571 
2906.000000	1.516390 
2904.000000	1.509522 
2902.000000	1.507049 
2900.000000	1.511770 
2898.000000	1.509054 
2896.000000	1.503413 
2894.000000	1.501773 
2892.000000	1.504381 
2890.000000	1.506042 
2888.000000	1.499906 
2886.000000	1.496255 
2884.000000	1.495963 
2882.000000	1.498553 
2880.000000	1.501441 
2878.000000	1.497425 
2876.000000	1.493372 
2874.000000	1.493834 
2872.000000	1.495791 
2870.000000	1.496863 
2868.000000	1.500250 
2866.000000	1.503720 
2864.000000	1.504974 
2862.000000	1.509930 
2860.000000	1.517452 
2858.000000	1.517211 
2856.000000	1.511256 
2854.000000	1.507922 
2852.000000	1.504719 
2850.000000	1.500309 
2848.000000	1.490778 
2846.000000	1.481373 
2844.000000	1.478042 
2842.000000	1.477643 
2840.000000	1.476612 
2838.000000	1.470977 
2836.000000	1.464626 
2834.000000	1.465018 
2832.000000	1.464023 
2830.000000	1.463637 
2828.000000	1.464759 
2826.000000	1.462134 
2824.000000	1.463128 
2822.000000	1.463486 
2820.000000	1.457813 
2818.000000	1.454554 
2816.000000	1.455975 
2814.000000	1.456525 
2812.000000	1.456730 
2810.000000	1.456774 
2808.000000	1.458813 
2806.000000	1.458464 
2804.000000	1.455262 
2802.000000	1.453523 
2800.000000	1.453338 
2798.000000	1.452069 
2796.000000	1.451249 
2794.000000	1.452715 
2792.000000	1.453302 
2790.000000	1.452116 
2788.000000	1.451425 
2786.000000	1.448797 
2784.000000	1.445975 
2782.000000	1.447989 
2780.000000	1.451392 
2778.000000	1.451068 
2776.000000	1.448384 
2774.000000	1.447594 
2772.000000	1.445758 
2770.000000	1.439401 
2768.000000	1.440584 
2766.000000	1.446212 
2764.000000	1.447139 
2762.000000	1.447432 
2760.000000	1.445637 
2758.000000	1.442267 
2756.000000	1.442367 
2754.000000	1.444696 
2752.000000	1.444653 
2750.000000	1.445201 
2748.000000	1.444399 
2746.000000	1.443191 
2744.000000	1.443907 
2742.000000	1.441568 
2740.000000	1.438439 
2738.000000	1.441067 
2736.000000	1.446635 
2734.000000	1.445669 
2732.000000	1.443257 
2730.000000	1.443559 
2728.000000	1.442838 
2726.000000	1.441428 
2724.000000	1.442413 
2722.000000	1.442264 
2720.000000	1.440082 
2718.000000	1.440962 
2716.000000	1.440413 
2714.000000	1.438224 
2712.000000	1.438394 
2710.000000	1.441022 
2708.000000	1.442135 
2706.000000	1.439276 
2704.000000	1.436803 
2702.000000	1.434142 
2700.000000	1.434170 
2698.000000	1.438306 
2696.000000	1.439845 
2694.000000	1.439096 
2692.000000	1.438312 
2690.000000	1.436268 
2688.000000	1.434507 
2686.000000	1.433293 
2684.000000	1.432311 
2682.000000	1.433444 
2680.000000	1.434302 
2678.000000	1.433290 
2676.000000	1.434406 
2674.000000	1.435161 
2672.000000	1.433604 
2670.000000	1.432701 
2668.000000	1.432003 
2666.000000	1.432950 
2664.000000	1.436347 
2662.000000	1.434279 
2660.000000	1.432768 
2658.000000	1.431933 
2656.000000	1.429268 
2654.000000	1.428528 
2652.000000	1.429017 
2650.000000	1.427446 
2648.000000	1.426458 
2646.000000	1.426113 
2644.000000	1.426514 
2642.000000	1.427585 
2640.000000	1.427773 
2638.000000	1.427646 
2636.000000	1.427280 
2634.000000	1.426931 
2632.000000	1.428512 
2630.000000	1.428231 
2628.000000	1.425092 
2626.000000	1.423612 
2624.000000	1.422113 
2622.000000	1.421148 
2620.000000	1.422600 
2618.000000	1.422910 
2616.000000	1.419975 
2614.000000	1.417547 
2612.000000	1.416987 
2610.000000	1.417715 
2608.000000	1.416703 
2606.000000	1.415071 
2604.000000	1.416844 
2602.000000	1.417967 
2600.000000	1.415734 
2598.000000	1.413260 
2596.000000	1.414274 
2594.000000	1.418059 
2592.000000	1.420288 
2590.000000	1.419246 
2588.000000	1.416627 
2586.000000	1.415505 
2584.000000	1.415591 
2582.000000	1.412884 
2580.000000	1.411499 
2578.000000	1.412809 
2576.000000	1.414046 
2574.000000	1.413345 
2572.000000	1.411555 
2570.000000	1.410237 
2568.000000	1.409187 
2566.000000	1.408929 
2564.000000	1.407093 
2562.000000	1.406528 
2560.000000	1.408783 
2558.000000	1.409251 
2556.000000	1.409160 
2554.000000	1.408749 
2552.000000	1.408409 
2550.000000	1.405860 
2548.000000	1.404623 
2546.000000	1.406235 
2544.000000	1.405723 
2542.000000	1.403812 
2540.000000	1.405239 
2538.000000	1.406253 
2536.000000	1.403969 
2534.000000	1.403513 
2532.000000	1.405044 
2530.000000	1.406140 
2528.000000	1.404497 
2526.000000	1.401472 
2524.000000	1.399922 
2522.000000	1.400414 
2520.000000	1.402434 
2518.000000	1.404844 
2516.000000	1.406578 
2514.000000	1.406116 
2512.000000	1.403423 
2510.000000	1.402266 
2508.000000	1.401885 
2506.000000	1.399179 
2504.000000	1.397562 
2502.000000	1.395372 
2500.000000	1.395676 
2498.000000	1.398031 
2496.000000	1.396645 
2494.000000	1.394364 
2492.000000	1.395251 
2490.000000	1.395534 
2488.000000	1.394205 
2486.000000	1.394603 
2484.000000	1.398761 
2482.000000	1.400578 
2480.000000	1.399189 
2478.000000	1.398137 
2476.000000	1.395758 
2474.000000	1.391047 
2472.000000	1.390423 
2470.000000	1.392430 
2468.000000	1.391978 
2466.000000	1.390660 
2464.000000	1.391017 
2462.000000	1.390619 
2460.000000	1.389047 
2458.000000	1.387717 
2456.000000	1.387257 
2454.000000	1.387859 
2452.000000	1.389519 
2450.000000	1.390479 
2448.000000	1.388900 
2446.000000	1.384606 
2444.000000	1.383435 
2442.000000	1.386629 
2440.000000	1.386500 
2438.000000	1.386649 
2436.000000	1.385294 
2434.000000	1.382175 
2432.000000	1.381851 
2430.000000	1.383485 
2428.000000	1.384119 
2426.000000	1.383773 
2424.000000	1.382890 
2422.000000	1.381038 
2420.000000	1.380919 
2418.000000	1.382595 
2416.000000	1.384435 
2414.000000	1.383633 
2412.000000	1.381173 
2410.000000	1.382607 
2408.000000	1.384011 
2406.000000	1.384362 
2404.000000	1.383287 
2402.000000	1.380024 
2400.000000	1.379232 
2398.000000	1.378043 
2396.000000	1.377268 
2394.000000	1.378076 
2392.000000	1.377596 
2390.000000	1.377957 
2388.000000	1.379726 
2386.000000	1.380145 
2384.000000	1.380871 
2382.000000	1.383851 
2380.000000	1.387983 
2378.000000	1.390118 
2376.000000	1.390976 
2374.000000	1.393887 
2372.000000	1.398075 
2370.000000	1.403636 
2368.000000	1.405589 
2366.000000	1.404823 
2364.000000	1.409330 
2362.000000	1.415809 
2360.000000	1.414578 
2358.000000	1.409306 
2356.000000	1.405397 
2354.000000	1.402136 
2352.000000	1.396364 
2350.000000	1.387555 
2348.000000	1.385898 
2346.000000	1.388915 
2344.000000	1.389196 
2342.000000	1.395910 
2340.000000	1.401809 
2338.000000	1.399816 
2336.000000	1.396939 
2334.000000	1.396384 
2332.000000	1.394989 
2330.000000	1.396526 
2328.000000	1.400844 
2326.000000	1.400198 
2324.000000	1.398575 
2322.000000	1.397979 
2320.000000	1.397311 
2318.000000	1.395428 
2316.000000	1.393649 
2314.000000	1.395421 
2312.000000	1.398321 
2310.000000	1.397291 
2308.000000	1.396054 
2306.000000	1.398147 
2304.000000	1.398754 
2302.000000	1.396039 
2300.000000	1.399735 
2298.000000	1.404733 
2296.000000	1.406692 
2294.000000	1.409025 
2292.000000	1.412509 
2290.000000	1.416157 
2288.000000	1.417385 
2286.000000	1.420700 
2284.000000	1.427654 
2282.000000	1.435328 
2280.000000	1.441625 
2278.000000	1.448512 
2276.000000	1.456597 
2274.000000	1.460693 
2272.000000	1.465357 
2270.000000	1.475509 
2268.000000	1.484167 
2266.000000	1.486097 
2264.000000	1.490438 
2262.000000	1.494813 
2260.000000	1.497849 
2258.000000	1.500519 
2256.000000	1.503678 
2254.000000	1.507352 
2252.000000	1.506125 
2250.000000	1.505309 
2248.000000	1.508452 
2246.000000	1.506400 
2244.000000	1.499658 
2242.000000	1.494548 
2240.000000	1.488750 
2238.000000	1.484502 
2236.000000	1.479104 
2234.000000	1.474486 
2232.000000	1.473946 
2230.000000	1.471461 
2228.000000	1.469366 
2226.000000	1.469949 
2224.000000	1.468196 
2222.000000	1.463483 
2220.000000	1.462978 
2218.000000	1.466222 
2216.000000	1.469418 
2214.000000	1.474396 
2212.000000	1.479432 
2210.000000	1.482375 
2208.000000	1.483858 
2206.000000	1.486513 
2204.000000	1.489366 
2202.000000	1.493011 
2200.000000	1.495668 
2198.000000	1.492786 
2196.000000	1.489223 
2194.000000	1.486484 
2192.000000	1.486085 
2190.000000	1.481778 
2188.000000	1.472443 
2186.000000	1.469534 
2184.000000	1.469610 
2182.000000	1.467314 
2180.000000	1.463688 
2178.000000	1.457403 
2176.000000	1.451638 
2174.000000	1.452280 
2172.000000	1.452765 
2170.000000	1.447693 
2168.000000	1.444440 
2166.000000	1.443700 
2164.000000	1.443447 
2162.000000	1.443510 
2160.000000	1.440493 
2158.000000	1.437852 
2156.000000	1.438940 
2154.000000	1.439997 
2152.000000	1.439065 
2150.000000	1.437197 
2148.000000	1.436681 
2146.000000	1.436862 
2144.000000	1.434564 
2142.000000	1.431653 
2140.000000	1.430854 
2138.000000	1.428273 
2136.000000	1.423607 
2134.000000	1.421618 
2132.000000	1.420318 
2130.000000	1.417872 
2128.000000	1.416573 
2126.000000	1.414799 
2124.000000	1.415424 
2122.000000	1.415443 
2120.000000	1.414543 
2118.000000	1.414054 
2116.000000	1.410978 
2114.000000	1.410030 
2112.000000	1.411261 
2110.000000	1.406425 
2108.000000	1.400076 
2106.000000	1.397410 
2104.000000	1.395457 
2102.000000	1.391802 
2100.000000	1.389044 
2098.000000	1.388135 
2096.000000	1.385515 
2094.000000	1.382997 
2092.000000	1.383095 
2090.000000	1.380949 
2088.000000	1.377512 
2086.000000	1.375135 
2084.000000	1.371913 
2082.000000	1.368003 
2080.000000	1.364825 
2078.000000	1.359862 
2076.000000	1.353964 
2074.000000	1.348837 
2072.000000	1.345117 
2070.000000	1.340604 
2068.000000	1.333452 
2066.000000	1.329014 
2064.000000	1.326007 
2062.000000	1.322268 
2060.000000	1.320935 
2058.000000	1.320170 
2056.000000	1.316986 
2054.000000	1.312485 
2052.000000	1.309056 
2050.000000	1.307977 
2048.000000	1.307010 
2046.000000	1.304039 
2044.000000	1.301573 
2042.000000	1.300976 
2040.000000	1.300707 
2038.000000	1.299769 
2036.000000	1.298105 
2034.000000	1.295998 
2032.000000	1.295873 
2030.000000	1.296098 
2028.000000	1.294622 
2026.000000	1.294578 
2024.000000	1.293569 
2022.000000	1.290926 
2020.000000	1.288956 
2018.000000	1.288978 
2016.000000	1.291633 
2014.000000	1.290449 
2012.000000	1.286434 
2010.000000	1.285572 
2008.000000	1.286664 
2006.000000	1.286734 
2004.000000	1.284749 
2002.000000	1.283357 
2000.000000	1.284615 
1998.000000	1.286140 
1996.000000	1.284907 
1994.000000	1.283347 
1992.000000	1.282443 
1990.000000	1.280705 
1988.000000	1.279826 
1986.000000	1.279678 
1984.000000	1.280363 
1982.000000	1.281328 
1980.000000	1.280600 
1978.000000	1.279450 
1976.000000	1.277731 
1974.000000	1.277152 
1972.000000	1.278020 
1970.000000	1.276056 
1968.000000	1.274927 
1966.000000	1.276009 
1964.000000	1.276295 
1962.000000	1.275288 
1960.000000	1.274715 
1958.000000	1.273565 
1956.000000	1.272002 
1954.000000	1.271575 
1952.000000	1.270350 
1950.000000	1.269328 
1948.000000	1.269600 
1946.000000	1.268126 
1944.000000	1.266452 
1942.000000	1.269445 
1940.000000	1.269596 
1938.000000	1.267034 
1936.000000	1.266263 
1934.000000	1.266771 
1932.000000	1.266255 
1930.000000	1.265439 
1928.000000	1.265810 
1926.000000	1.262346 
1924.000000	1.258984 
1922.000000	1.259529 
1920.000000	1.258782 
1918.000000	1.260605 
1916.000000	1.262117 
1914.000000	1.261710 
1912.000000	1.260305 
1910.000000	1.257964 
1908.000000	1.256924 
1906.000000	1.256279 
1904.000000	1.255481 
1902.000000	1.255466 
1900.000000	1.256421 
1898.000000	1.255441 
1896.000000	1.252531 
1894.000000	1.251041 
1892.000000	1.251204 
1890.000000	1.253536 
1888.000000	1.255095 
1886.000000	1.252913 
1884.000000	1.250818 
1882.000000	1.249177 
1880.000000	1.249273 
1878.000000	1.249666 
1876.000000	1.249804 
1874.000000	1.249817 
1872.000000	1.246249 
1870.000000	1.243671 
1868.000000	1.245960 
1866.000000	1.246579 
1864.000000	1.245020 
1862.000000	1.244091 
1860.000000	1.244765 
1858.000000	1.243441 
1856.000000	1.243477 
1854.000000	1.243709 
1852.000000	1.243225 
1850.000000	1.242077 
1848.000000	1.238424 
1846.000000	1.235930 
1844.000000	1.238833 
1842.000000	1.239825 
1840.000000	1.238514 
1838.000000	1.238681 
1836.000000	1.236678 
1834.000000	1.234073 
1832.000000	1.232854 
1830.000000	1.235120 
1828.000000	1.234194 
1826.000000	1.231086 
1824.000000	1.231813 
1822.000000	1.233477 
1820.000000	1.233591 
1818.000000	1.230650 
1816.000000	1.229309 
1814.000000	1.228965 
1812.000000	1.228577 
1810.000000	1.229325 
1808.000000	1.228442 
1806.000000	1.225531 
1804.000000	1.223576 
1802.000000	1.222671 
1800.000000	1.224400 
1798.000000	1.223716 
1796.000000	1.220804 
1794.000000	1.218043 
1792.000000	1.219388 
1790.000000	1.220809 
1788.000000	1.219774 
1786.000000	1.218527 
1784.000000	1.218486 
1782.000000	1.217142 
1780.000000	1.215930 
1778.000000	1.213990 
1776.000000	1.209452 
1774.000000	1.205307 
1772.000000	1.209189 
1770.000000	1.210399 
1768.000000	1.211173 
1766.000000	1.212721 
1764.000000	1.208661 
1762.000000	1.208472 
1760.000000	1.209257 
1758.000000	1.207591 
1756.000000	1.210063 
1754.000000	1.208750 
1752.000000	1.206683 
1750.000000	1.205911 
1748.000000	1.205488 
1746.000000	1.205535 
1744.000000	1.204532 
1742.000000	1.201851 
1740.000000	1.203396 
1738.000000	1.203224 
1736.000000	1.195074 
1734.000000	1.200829 
1732.000000	1.207315 
1730.000000	1.206214 
1728.000000	1.205294 
1726.000000	1.203431 
1724.000000	1.202585 
1722.000000	1.200898 
1720.000000	1.194596 
1718.000000	1.190611 
1716.000000	1.194342 
1714.000000	1.196547 
1712.000000	1.194170 
1710.000000	1.190335 
1708.000000	1.186133 
1706.000000	1.185293 
1704.000000	1.183095 
1702.000000	1.177678 
1700.000000	1.182171 
1698.000000	1.175081 
1696.000000	1.177116 
1694.000000	1.180955 
1692.000000	1.174298 
1690.000000	1.171480 
1688.000000	1.168751 
1686.000000	1.161194 
1684.000000	1.165470 
1682.000000	1.169598 
1680.000000	1.167822 
1678.000000	1.163175 
1676.000000	1.160007 
1674.000000	1.161587 
1672.000000	1.155267 
1670.000000	1.156421 
1668.000000	1.163368 
1666.000000	1.160309 
1664.000000	1.156231 
1662.000000	1.157593 
1660.000000	1.156532 
1658.000000	1.151718 
1656.000000	1.140806 
1654.000000	1.137587 
1652.000000	1.154878 
1650.000000	1.144984 
1648.000000	1.136748 
1646.000000	1.147200 
1644.000000	1.151240 
1642.000000	1.146482 
1640.000000	1.141795 
1638.000000	1.133085 
1636.000000	1.134956 
1634.000000	1.143378 
1632.000000	1.140940 
1630.000000	1.137550 
1628.000000	1.137941 
1626.000000	1.136203 
1624.000000	1.133838 
1622.000000	1.135624 
1620.000000	1.131593 
1618.000000	1.128987 
1616.000000	1.134220 
1614.000000	1.132964 
1612.000000	1.129424 
1610.000000	1.128551 
1608.000000	1.128375 
1606.000000	1.126231 
1604.000000	1.122867 
1602.000000	1.121959 
1600.000000	1.120909 
1598.000000	1.119326 
1596.000000	1.118099 
1594.000000	1.116198 
1592.000000	1.115649 
1590.000000	1.115430 
1588.000000	1.114497 
1586.000000	1.113195 
1584.000000	1.111584 
1582.000000	1.109334 
1580.000000	1.105738 
1578.000000	1.100887 
1576.000000	1.103093 
1574.000000	1.104572 
1572.000000	1.098648 
1570.000000	1.097729 
1568.000000	1.101205 
1566.000000	1.098450 
1564.000000	1.095287 
1562.000000	1.087568 
1560.000000	1.081730 
1558.000000	1.093271 
1556.000000	1.092899 
1554.000000	1.091933 
1552.000000	1.089971 
1550.000000	1.088173 
1548.000000	1.085015 
1546.000000	1.079404 
1544.000000	1.076392 
1542.000000	1.072478 
1540.000000	1.077995 
1538.000000	1.084815 
1536.000000	1.077561 
1534.000000	1.074720 
1532.000000	1.078522 
1530.000000	1.075787 
1528.000000	1.071886 
1526.000000	1.070336 
1524.000000	1.066455 
1522.000000	1.065171 
1520.000000	1.068031 
1518.000000	1.063573 
1516.000000	1.065518 
1514.000000	1.064912 
1512.000000	1.062012 
1510.000000	1.055505 
1508.000000	1.048953 
1506.000000	1.061618 
1504.000000	1.065333 
1502.000000	1.061082 
1500.000000	1.056733 
1498.000000	1.054869 
1496.000000	1.060001 
1494.000000	1.059672 
1492.000000	1.052871 
1490.000000	1.050777 
1488.000000	1.054932 
1486.000000	1.057149 
1484.000000	1.055053 
1482.000000	1.053701 
1480.000000	1.053452 
1478.000000	1.052088 
1476.000000	1.050246 
1474.000000	1.046958 
1472.000000	1.051443 
1470.000000	1.054034 
1468.000000	1.050923 
1466.000000	1.048581 
1464.000000	1.051029 
1462.000000	1.050221 
1460.000000	1.043995 
1458.000000	1.041538 
1456.000000	1.046749 
1454.000000	1.044681 
1452.000000	1.042667 
1450.000000	1.041826 
1448.000000	1.040349 
1446.000000	1.038194 
1444.000000	1.035548 
1442.000000	1.033769 
1440.000000	1.030885 
1438.000000	1.028248 
1436.000000	1.028015 
1434.000000	1.025868 
1432.000000	1.023837 
1430.000000	1.023184 
1428.000000	1.020802 
1426.000000	1.016574 
1424.000000	1.014747 
1422.000000	1.010608 
1420.000000	1.007735 
1418.000000	1.010561 
1416.000000	1.009403 
1414.000000	1.007436 
1412.000000	1.004972 
1410.000000	1.002968 
1408.000000	1.000524 
1406.000000	0.999009 
1404.000000	0.999187 
1402.000000	0.996251 
1400.000000	0.993016 
1398.000000	0.992369 
1396.000000	0.990672 
1394.000000	0.992014 
1392.000000	0.993104 
1390.000000	0.989905 
1388.000000	0.986791 
1386.000000	0.986601 
1384.000000	0.985710 
1382.000000	0.983663 
1380.000000	0.982255 
1378.000000	0.979521 
1376.000000	0.975849 
1374.000000	0.975687 
1372.000000	0.975348 
1370.000000	0.973106 
1368.000000	0.971394 
1366.000000	0.968143 
1364.000000	0.964846 
1362.000000	0.965204 
1360.000000	0.964756 
1358.000000	0.962575 
1356.000000	0.960981 
1354.000000	0.959512 
1352.000000	0.957443 
1350.000000	0.954952 
1348.000000	0.953344 
1346.000000	0.952454 
1344.000000	0.949805 
1342.000000	0.947041 
1340.000000	0.946022 
1338.000000	0.945131 
1336.000000	0.942741 
1334.000000	0.941235 
1332.000000	0.941250 
1330.000000	0.941200 
1328.000000	0.939847 
1326.000000	0.937679 
1324.000000	0.935940 
1322.000000	0.933403 
1320.000000	0.931741 
1318.000000	0.931669 
1316.000000	0.930308 
1314.000000	0.928090 
1312.000000	0.926579 
1310.000000	0.925961 
1308.000000	0.925119 
1306.000000	0.923627 
1304.000000	0.921710 
1302.000000	0.920530 
1300.000000	0.919843 
1298.000000	0.918013 
1296.000000	0.916854 
1294.000000	0.915910 
1292.000000	0.913857 
1290.000000	0.912325 
1288.000000	0.911609 
1286.000000	0.910117 
1284.000000	0.908686 
1282.000000	0.907661 
1280.000000	0.906461 
1278.000000	0.905075 
1276.000000	0.903472 
1274.000000	0.902371 
1272.000000	0.901499 
1270.000000	0.900200 
1268.000000	0.899342 
1266.000000	0.898898 
1264.000000	0.898384 
1262.000000	0.897777 
1260.000000	0.897163 
1258.000000	0.896522 
1256.000000	0.896128 
1254.000000	0.896047 
1252.000000	0.895271 
1250.000000	0.894840 
1248.000000	0.894784 
1246.000000	0.894977 
1244.000000	0.895256 
1242.000000	0.896712 
1240.000000	0.898216 
1238.000000	0.899017 
1236.000000	0.899928 
1234.000000	0.902705 
1232.000000	0.906038 
1230.000000	0.909085 
1228.000000	0.913916 
1226.000000	0.919019 
1224.000000	0.923357 
1222.000000	0.929231 
1220.000000	0.937472 
1218.000000	0.944134 
1216.000000	0.951700 
1214.000000	0.961915 
1212.000000	0.971439 
1210.000000	0.981692 
1208.000000	0.993162 
1206.000000	1.005231 
1204.000000	1.018158 
1202.000000	1.030914 
1200.000000	1.044014 
1198.000000	1.057577 
1196.000000	1.071252 
1194.000000	1.085633 
1192.000000	1.100344 
1190.000000	1.115014 
1188.000000	1.129884 
1186.000000	1.144216 
1184.000000	1.158092 
1182.000000	1.172534 
1180.000000	1.186570 
1178.000000	1.200485 
1176.000000	1.214246 
1174.000000	1.228332 
1172.000000	1.239854 
1170.000000	1.251381 
1168.000000	1.265249 
1166.000000	1.278672 
1164.000000	1.289819 
1162.000000	1.298910 
1160.000000	1.309799 
1158.000000	1.321087 
1156.000000	1.329116 
1154.000000	1.335281 
1152.000000	1.341744 
1150.000000	1.351389 
1148.000000	1.361756 
1146.000000	1.369789 
1144.000000	1.375718 
1142.000000	1.378452 
1140.000000	1.383297 
1138.000000	1.388421 
1136.000000	1.393792 
1134.000000	1.400443 
1132.000000	1.406174 
1130.000000	1.410693 
1128.000000	1.413182 
1126.000000	1.418092 
1124.000000	1.422477 
1122.000000	1.424376 
1120.000000	1.427771 
1118.000000	1.432277 
1116.000000	1.436031 
1114.000000	1.440824 
1112.000000	1.445617 
1110.000000	1.449838 
1108.000000	1.455703 
1106.000000	1.458956 
1104.000000	1.463420 
1102.000000	1.470729 
1100.000000	1.472877 
1098.000000	1.477286 
1096.000000	1.485479 
1094.000000	1.489331 
1092.000000	1.495931 
1090.000000	1.502145 
1088.000000	1.503450 
1086.000000	1.506863 
1084.000000	1.514710 
1082.000000	1.519979 
1080.000000	1.524078 
1078.000000	1.527424 
1076.000000	1.526556 
1074.000000	1.530019 
1072.000000	1.542423 
1070.000000	1.552936 
1068.000000	1.552851 
1066.000000	1.551385 
1064.000000	1.553680 
1062.000000	1.552551 
1060.000000	1.551861 
1058.000000	1.551496 
1056.000000	1.550428 
1054.000000	1.551017 
1052.000000	1.544772 
1050.000000	1.537408 
1048.000000	1.531834 
1046.000000	1.518798 
1044.000000	1.507219 
1042.000000	1.495451 
1040.000000	1.483435 
1038.000000	1.472917 
1036.000000	1.459755 
1034.000000	1.444659 
1032.000000	1.432157 
1030.000000	1.415141 
1028.000000	1.394996 
1026.000000	1.374071 
1024.000000	1.352673 
1022.000000	1.328990 
1020.000000	1.303299 
1018.000000	1.279996 
1016.000000	1.253973 
1014.000000	1.226075 
1012.000000	1.197714 
1010.000000	1.169181 
1008.000000	1.141036 
1006.000000	1.110824 
1004.000000	1.081121 
1002.000000	1.054743 
1000.000000	1.030273 
998.000000	 1.008304 
996.000000	 0.989999 
994.000000	 0.976246 
992.000000	 0.968712 
990.000000	 0.967223 
988.000000	 0.971616 
986.000000	 0.980869 
984.000000	 0.988378 
982.000000	 0.990155 
980.000000	 0.983979 
978.000000	 0.971485 
976.000000	 0.952855 
974.000000	 0.927306 
972.000000	 0.900616 
970.000000	 0.875587 
968.000000	 0.852800 
966.000000	 0.833528 
964.000000	 0.817553 
962.000000	 0.804164 
960.000000	 0.792643 
958.000000	 0.783350 
956.000000	 0.777267 
954.000000	 0.775429 
952.000000	 0.779192 
950.000000	 0.786635 
948.000000	 0.796867 
946.000000	 0.808744 
944.000000	 0.819467 
942.000000	 0.827060 
940.000000	 0.830364 
938.000000	 0.828828 
936.000000	 0.824009 
934.000000	 0.816957 
932.000000	 0.809677 
930.000000	 0.801609 
928.000000	 0.793165 
926.000000	 0.783656 
924.000000	 0.772277 
922.000000	 0.761432 
920.000000	 0.751638 
918.000000	 0.742853 
916.000000	 0.736604 
914.000000	 0.732769 
912.000000	 0.729373 
910.000000	 0.728120 
908.000000	 0.730612 
906.000000	 0.734138 
904.000000	 0.737678 
902.000000	 0.742735 
900.000000	 0.749555 
898.000000	 0.759420 
896.000000	 0.775876 
894.000000	 0.798584 
892.000000	 0.824601 
890.000000	 0.854240 
888.000000	 0.885572 
886.000000	 0.916073 
884.000000	 0.945343 
882.000000	 0.972348 
880.000000	 0.994329 
878.000000	 1.008915 
876.000000	 1.017018 
874.000000	 1.020543 
872.000000	 1.021105 
870.000000	 1.017641 
868.000000	 1.014443 
866.000000	 1.011435 
864.000000	 1.006354 
862.000000	 0.999761 
860.000000	 0.989507 
858.000000	 0.979799 
856.000000	 0.973022 
854.000000	 0.967447 
852.000000	 0.962129 
850.000000	 0.957580 
848.000000	 0.953728 
846.000000	 0.950808 
844.000000	 0.947829 
842.000000	 0.940759 
840.000000	 0.932563 
838.000000	 0.925622 
836.000000	 0.913990 
834.000000	 0.895550 
832.000000	 0.872142 
830.000000	 0.844582 
828.000000	 0.811667 
826.000000	 0.776986 
824.000000	 0.745128 
822.000000	 0.716796 
820.000000	 0.691692 
818.000000	 0.669973 
816.000000	 0.652746 
814.000000	 0.639342 
812.000000	 0.627361 
810.000000	 0.617239 
808.000000	 0.610105 
806.000000	 0.604926 
804.000000	 0.600042 
802.000000	 0.593570 
800.000000	 0.585089 
798.000000	 0.576182 
796.000000	 0.568055 
794.000000	 0.560129 
792.000000	 0.551181 
790.000000	 0.542340 
788.000000	 0.534403 
786.000000	 0.526571 
784.000000	 0.519205 
782.000000	 0.512685 
780.000000	 0.505812 
778.000000	 0.498828 
776.000000	 0.493659 
774.000000	 0.489054 
772.000000	 0.483811 
770.000000	 0.479244 
768.000000	 0.475570 
766.000000	 0.472499 
764.000000	 0.469854 
762.000000	 0.467835 
760.000000	 0.466052 
758.000000	 0.465046 
756.000000	 0.464886 
754.000000	 0.464513 
752.000000	 0.464014 
750.000000	 0.463800 
748.000000	 0.464266 
746.000000	 0.465381 
744.000000	 0.466046 
742.000000	 0.466153 
740.000000	 0.466329 
738.000000	 0.466866 
736.000000	 0.467648 
734.000000	 0.467857 
732.000000	 0.467082 
730.000000	 0.466174 
728.000000	 0.465141 
726.000000	 0.464393 
724.000000	 0.464179 
722.000000	 0.464466 
720.000000	 0.465635 
718.000000	 0.466963 
716.000000	 0.468585 
714.000000	 0.471251 
712.000000	 0.473751 
710.000000	 0.474438 
708.000000	 0.472949 
706.000000	 0.467667 
704.000000	 0.459368 
702.000000	 0.449233 
700.000000	 0.438508 
698.000000	 0.428026 
696.000000	 0.418844 
694.000000	 0.411059 
692.000000	 0.404508 
690.000000	 0.399704 
688.000000	 0.396083 
686.000000	 0.393270 
684.000000	 0.390509 
682.000000	 0.388223 
680.000000	 0.387295 
678.000000	 0.386364 
676.000000	 0.384343 
674.000000	 0.382046 
672.000000	 0.381383 
670.000000	 0.386454 
668.000000	 0.391126 
666.000000	 0.379895 
664.000000	 0.371145 
662.000000	 0.367186 
660.000000	 0.364092 
658.000000	 0.361553 
656.000000	 0.359510 
654.000000	 0.357461 
652.000000	 0.356098 
650.000000	 0.354639 
648.000000	 0.352750 
646.000000	 0.350828 
644.000000	 0.348573 
642.000000	 0.347071 
640.000000	 0.345509 
638.000000	 0.342768 
636.000000	 0.339523 
634.000000	 0.336313 
632.000000	 0.331923 
630.000000	 0.324421 
628.000000	 0.315275 
626.000000	 0.307992 
624.000000	 0.303530 
622.000000	 0.302706 
620.000000	 0.301639 
618.000000	 0.296385 
616.000000	 0.288669 
614.000000	 0.279826 
612.000000	 0.271966 
610.000000	 0.267494 
608.000000	 0.262896 
606.000000	 0.255621 
604.000000	 0.247363 
602.000000	 0.241765 
600.000000	 0.236209 
598.000000	 0.228374 
596.000000	 0.220431 
594.000000	 0.212253 
592.000000	 0.204430 
590.000000	 0.198182 
588.000000	 0.193803 
586.000000	 0.188697 
584.000000	 0.182395 
582.000000	 0.176254 
580.000000	 0.170675 
578.000000	 0.166078 
576.000000	 0.162155 
574.000000	 0.158290 
572.000000	 0.154154 
570.000000	 0.151018 
568.000000	 0.148868 
566.000000	 0.146441 
564.000000	 0.143790 
562.000000	 0.141134 
560.000000	 0.139231 
558.000000	 0.137492 
556.000000	 0.135938 
554.000000	 0.134219 
552.000000	 0.133051 
550.000000	 0.132669 
548.000000	 0.131270 
546.000000	 0.130527 
544.000000	 0.130693 
542.000000	 0.131476 
540.000000	 0.132353 
538.000000	 0.133152 
536.000000	 0.133875 
534.000000	 0.134197 
532.000000	 0.135155 
530.000000	 0.136562 
528.000000	 0.137399 
526.000000	 0.137955 
524.000000	 0.139581 
522.000000	 0.140477 
520.000000	 0.139506 
518.000000	 0.137882 
516.000000	 0.138195 
514.000000	 0.140959 
512.000000	 0.142934 
510.000000	 0.143740 
508.000000	 0.144604 
506.000000	 0.145881 
504.000000	 0.146501 
502.000000	 0.147891 
500.000000	 0.150714 
498.000000	 0.153380 
496.000000	 0.156667 
494.000000	 0.159650 
492.000000	 0.162661 
490.000000	 0.167038 
488.000000	 0.173220 
486.000000	 0.179541 
484.000000	 0.185259 
482.000000	 0.190409 
480.000000	 0.196327 
478.000000	 0.202282 
476.000000	 0.208039 
474.000000	 0.212354 
472.000000	 0.216831 
470.000000	 0.222798 
468.000000	 0.227051 
466.000000	 0.231661 
464.000000	 0.235998 
462.000000	 0.239205 
460.000000	 0.241529 
458.000000	 0.240732 
456.000000	 0.240490 
454.000000	 0.242486 
452.000000	 0.244817 
450.000000	 0.245192 

