PE IR       SUBTECH     SPECTRUM    ASCII       PEDS        1.60        
  -1
1911B16G.ASC
07/12/03
20:08:57.00
07/12/03
18:00:23.00
koro/arcerd
otro backg
450.000000
16









1004,02.19S
DTGS
MIR
KBR
52208
0.300000

4.000000
STRONG
RATIO
MAGNITUDE


DOUBLE SIDED
16
BIDIRECTIONAL
2




#HDR
-1
-1
#GR
CM-1
A
0.00000011920928955078
0.0
4400.000000
-2.000000
1976
8
2.315914
0.186017
#DATA
4400.000000	1.676154 
4398.000000	1.678517 
4396.000000	1.676980 
4394.000000	1.677610 
4392.000000	1.669990 
4390.000000	1.664468 
4388.000000	1.668028 
4386.000000	1.665861 
4384.000000	1.669641 
4382.000000	1.683025 
4380.000000	1.687735 
4378.000000	1.678616 
4376.000000	1.668636 
4374.000000	1.668120 
4372.000000	1.670935 
4370.000000	1.668819 
4368.000000	1.669013 
4366.000000	1.677787 
4364.000000	1.679783 
4362.000000	1.678429 
4360.000000	1.676065 
4358.000000	1.671809 
4356.000000	1.670426 
4354.000000	1.668067 
4352.000000	1.668877 
4350.000000	1.675702 
4348.000000	1.674091 
4346.000000	1.673300 
4344.000000	1.679031 
4342.000000	1.681133 
4340.000000	1.673022 
4338.000000	1.665468 
4336.000000	1.663279 
4334.000000	1.664884 
4332.000000	1.668559 
4330.000000	1.668641 
4328.000000	1.665233 
4326.000000	1.669066 
4324.000000	1.667654 
4322.000000	1.657896 
4320.000000	1.658664 
4318.000000	1.663355 
4316.000000	1.665070 
4314.000000	1.666528 
4312.000000	1.666538 
4310.000000	1.671804 
4308.000000	1.672997 
4306.000000	1.662074 
4304.000000	1.667659 
4302.000000	1.677196 
4300.000000	1.674502 
4298.000000	1.671892 
4296.000000	1.663455 
4294.000000	1.661775 
4292.000000	1.672817 
4290.000000	1.674027 
4288.000000	1.670014 
4286.000000	1.669061 
4284.000000	1.671430 
4282.000000	1.670014 
4280.000000	1.666370 
4278.000000	1.672023 
4276.000000	1.670212 
4274.000000	1.660603 
4272.000000	1.660072 
4270.000000	1.662807 
4268.000000	1.662378 
4266.000000	1.657068 
4264.000000	1.657500 
4262.000000	1.666773 
4260.000000	1.671960 
4258.000000	1.673500 
4256.000000	1.675643 
4254.000000	1.670586 
4252.000000	1.660906 
4250.000000	1.661556 
4248.000000	1.670440 
4246.000000	1.671556 
4244.000000	1.673358 
4242.000000	1.668699 
4240.000000	1.660385 
4238.000000	1.661684 
4236.000000	1.661442 
4234.000000	1.660063 
4232.000000	1.660707 
4230.000000	1.661390 
4228.000000	1.665732 
4226.000000	1.669312 
4224.000000	1.665803 
4222.000000	1.662816 
4220.000000	1.660759 
4218.000000	1.660949 
4216.000000	1.663446 
4214.000000	1.665018 
4212.000000	1.663899 
4210.000000	1.668902 
4208.000000	1.673339 
4206.000000	1.666326 
4204.000000	1.657990 
4202.000000	1.656903 
4200.000000	1.657387 
4198.000000	1.660238 
4196.000000	1.662974 
4194.000000	1.663522 
4192.000000	1.665147 
4190.000000	1.661238 
4188.000000	1.658622 
4186.000000	1.662264 
4184.000000	1.668023 
4182.000000	1.670314 
4180.000000	1.666451 
4178.000000	1.663345 
4176.000000	1.661210 
4174.000000	1.662383 
4172.000000	1.670508 
4170.000000	1.668361 
4168.000000	1.665300 
4166.000000	1.667937 
4164.000000	1.666764 
4162.000000	1.663975 
4160.000000	1.663207 
4158.000000	1.662902 
4156.000000	1.655576 
4154.000000	1.658541 
4152.000000	1.666821 
4150.000000	1.661665 
4148.000000	1.658287 
4146.000000	1.661570 
4144.000000	1.660153 
4142.000000	1.657966 
4140.000000	1.661471 
4138.000000	1.662507 
4136.000000	1.654944 
4134.000000	1.656485 
4132.000000	1.660958 
4130.000000	1.657054 
4128.000000	1.658324 
4126.000000	1.663102 
4124.000000	1.662950 
4122.000000	1.662065 
4120.000000	1.659098 
4118.000000	1.656040 
4116.000000	1.663593 
4114.000000	1.669172 
4112.000000	1.666740 
4110.000000	1.663866 
4108.000000	1.667606 
4106.000000	1.667471 
4104.000000	1.662840 
4102.000000	1.660328 
4100.000000	1.659434 
4098.000000	1.660536 
4096.000000	1.664162 
4094.000000	1.668158 
4092.000000	1.671401 
4090.000000	1.672432 
4088.000000	1.672856 
4086.000000	1.665583 
4084.000000	1.662383 
4082.000000	1.664042 
4080.000000	1.661072 
4078.000000	1.656527 
4076.000000	1.658353 
4074.000000	1.664721 
4072.000000	1.665971 
4070.000000	1.664028 
4068.000000	1.663250 
4066.000000	1.662112 
4064.000000	1.665698 
4062.000000	1.668385 
4060.000000	1.662816 
4058.000000	1.658707 
4056.000000	1.660754 
4054.000000	1.667630 
4052.000000	1.668520 
4050.000000	1.664171 
4048.000000	1.659731 
4046.000000	1.653939 
4044.000000	1.653743 
4042.000000	1.662412 
4040.000000	1.668197 
4038.000000	1.668926 
4036.000000	1.668409 
4034.000000	1.669249 
4032.000000	1.673773 
4030.000000	1.674018 
4028.000000	1.669728 
4026.000000	1.660787 
4024.000000	1.656593 
4022.000000	1.661822 
4020.000000	1.666043 
4018.000000	1.664491 
4016.000000	1.661547 
4014.000000	1.661385 
4012.000000	1.659216 
4010.000000	1.652649 
4008.000000	1.653874 
4006.000000	1.662279 
4004.000000	1.659665 
4002.000000	1.655135 
4000.000000	1.661841 
3998.000000	1.666764 
3996.000000	1.665928 
3994.000000	1.660963 
3992.000000	1.660697 
3990.000000	1.667970 
3988.000000	1.671197 
3986.000000	1.671673 
3984.000000	1.670852 
3982.000000	1.665439 
3980.000000	1.663942 
3978.000000	1.663035 
3976.000000	1.668433 
3974.000000	1.664396 
3972.000000	1.659230 
3970.000000	1.664539 
3968.000000	1.668607 
3966.000000	1.667413 
3964.000000	1.663679 
3962.000000	1.662593 
3960.000000	1.661646 
3958.000000	1.660186 
3956.000000	1.661784 
3954.000000	1.664171 
3952.000000	1.662245 
3950.000000	1.659032 
3948.000000	1.659727 
3946.000000	1.655515 
3944.000000	1.656415 
3942.000000	1.667856 
3940.000000	1.671722 
3938.000000	1.667851 
3936.000000	1.662874 
3934.000000	1.654981 
3932.000000	1.653356 
3930.000000	1.659599 
3928.000000	1.660721 
3926.000000	1.656152 
3924.000000	1.652844 
3922.000000	1.653286 
3920.000000	1.647788 
3918.000000	1.648294 
3916.000000	1.662650 
3914.000000	1.672116 
3912.000000	1.673197 
3910.000000	1.672452 
3908.000000	1.669719 
3906.000000	1.662426 
3904.000000	1.656260 
3902.000000	1.660356 
3900.000000	1.672013 
3898.000000	1.675977 
3896.000000	1.666615 
3894.000000	1.654789 
3892.000000	1.657764 
3890.000000	1.665281 
3888.000000	1.660295 
3886.000000	1.659122 
3884.000000	1.666350 
3882.000000	1.663617 
3880.000000	1.661656 
3878.000000	1.664090 
3876.000000	1.657792 
3874.000000	1.651798 
3872.000000	1.656898 
3870.000000	1.673134 
3868.000000	1.674972 
3866.000000	1.657458 
3864.000000	1.657830 
3862.000000	1.660759 
3860.000000	1.659268 
3858.000000	1.655796 
3856.000000	1.643293 
3854.000000	1.651427 
3852.000000	1.684870 
3850.000000	1.690000 
3848.000000	1.677698 
3846.000000	1.664329 
3844.000000	1.656335 
3842.000000	1.655988 
3840.000000	1.658522 
3838.000000	1.665559 
3836.000000	1.674668 
3834.000000	1.673783 
3832.000000	1.667803 
3830.000000	1.669013 
3828.000000	1.674727 
3826.000000	1.678478 
3824.000000	1.669104 
3822.000000	1.664841 
3820.000000	1.680904 
3818.000000	1.682930 
3816.000000	1.679694 
3814.000000	1.682436 
3812.000000	1.676802 
3810.000000	1.664582 
3808.000000	1.659675 
3806.000000	1.670305 
3804.000000	1.669864 
3802.000000	1.671804 
3800.000000	1.690604 
3798.000000	1.690593 
3796.000000	1.679838 
3794.000000	1.676733 
3792.000000	1.673241 
3790.000000	1.668588 
3788.000000	1.669085 
3786.000000	1.672130 
3784.000000	1.670911 
3782.000000	1.667941 
3780.000000	1.665981 
3778.000000	1.673974 
3776.000000	1.680616 
3774.000000	1.675987 
3772.000000	1.666254 
3770.000000	1.666735 
3768.000000	1.672155 
3766.000000	1.674052 
3764.000000	1.675290 
3762.000000	1.671722 
3760.000000	1.676434 
3758.000000	1.678335 
3756.000000	1.669515 
3754.000000	1.661494 
3752.000000	1.662440 
3750.000000	1.689782 
3748.000000	1.712133 
3746.000000	1.712437 
3744.000000	1.727943 
3742.000000	1.742784 
3740.000000	1.733125 
3738.000000	1.714299 
3736.000000	1.716067 
3734.000000	1.731003 
3732.000000	1.739198 
3730.000000	1.736949 
3728.000000	1.728259 
3726.000000	1.718183 
3724.000000	1.716757 
3722.000000	1.726546 
3720.000000	1.731477 
3718.000000	1.735399 
3716.000000	1.735084 
3714.000000	1.728048 
3712.000000	1.735990 
3710.000000	1.758193 
3708.000000	1.765973 
3706.000000	1.764063 
3704.000000	1.760864 
3702.000000	1.761157 
3700.000000	1.764990 
3698.000000	1.768560 
3696.000000	1.773847 
3694.000000	1.774432 
3692.000000	1.770661 
3690.000000	1.775140 
3688.000000	1.796253 
3686.000000	1.809239 
3684.000000	1.804100 
3682.000000	1.798994 
3680.000000	1.797323 
3678.000000	1.786021 
3676.000000	1.793903 
3674.000000	1.824486 
3672.000000	1.815883 
3670.000000	1.806478 
3668.000000	1.835625 
3666.000000	1.849115 
3664.000000	1.845131 
3662.000000	1.842501 
3660.000000	1.843056 
3658.000000	1.832536 
3656.000000	1.831537 
3654.000000	1.847063 
3652.000000	1.837615 
3650.000000	1.826814 
3648.000000	1.849101 
3646.000000	1.869039 
3644.000000	1.864513 
3642.000000	1.853512 
3640.000000	1.855905 
3638.000000	1.860266 
3636.000000	1.856954 
3634.000000	1.851808 
3632.000000	1.852781 
3630.000000	1.853881 
3628.000000	1.871427 
3626.000000	1.879659 
3624.000000	1.863520 
3622.000000	1.847960 
3620.000000	1.844609 
3618.000000	1.855949 
3616.000000	1.861415 
3614.000000	1.859014 
3612.000000	1.868220 
3610.000000	1.870627 
3608.000000	1.867395 
3606.000000	1.870534 
3604.000000	1.873728 
3602.000000	1.872352 
3600.000000	1.864673 
3598.000000	1.861920 
3596.000000	1.854658 
3594.000000	1.852537 
3592.000000	1.866001 
3590.000000	1.858237 
3588.000000	1.860964 
3586.000000	1.888188 
3584.000000	1.888909 
3582.000000	1.870588 
3580.000000	1.869307 
3578.000000	1.873557 
3576.000000	1.872514 
3574.000000	1.868824 
3572.000000	1.863452 
3570.000000	1.856128 
3568.000000	1.859149 
3566.000000	1.880100 
3564.000000	1.886447 
3562.000000	1.882148 
3560.000000	1.878084 
3558.000000	1.882258 
3556.000000	1.884943 
3554.000000	1.877608 
3552.000000	1.884752 
3550.000000	1.894752 
3548.000000	1.890668 
3546.000000	1.891377 
3544.000000	1.892499 
3542.000000	1.898221 
3540.000000	1.905555 
3538.000000	1.900775 
3536.000000	1.897582 
3534.000000	1.894760 
3532.000000	1.887205 
3530.000000	1.891723 
3528.000000	1.890998 
3526.000000	1.889101 
3524.000000	1.898475 
3522.000000	1.903793 
3520.000000	1.891143 
3518.000000	1.889767 
3516.000000	1.899739 
3514.000000	1.893446 
3512.000000	1.889029 
3510.000000	1.899525 
3508.000000	1.901460 
3506.000000	1.892216 
3504.000000	1.889591 
3502.000000	1.909269 
3500.000000	1.930835 
3498.000000	1.928536 
3496.000000	1.915354 
3494.000000	1.908992 
3492.000000	1.904382 
3490.000000	1.902476 
3488.000000	1.911468 
3486.000000	1.919928 
3484.000000	1.911037 
3482.000000	1.901394 
3480.000000	1.904183 
3478.000000	1.903901 
3476.000000	1.907735 
3474.000000	1.916874 
3472.000000	1.916276 
3470.000000	1.917592 
3468.000000	1.916959 
3466.000000	1.912490 
3464.000000	1.919756 
3462.000000	1.913985 
3460.000000	1.904166 
3458.000000	1.907074 
3456.000000	1.909908 
3454.000000	1.909648 
3452.000000	1.906932 
3450.000000	1.899295 
3448.000000	1.898540 
3446.000000	1.905106 
3444.000000	1.906639 
3442.000000	1.900495 
3440.000000	1.897910 
3438.000000	1.905597 
3436.000000	1.908371 
3434.000000	1.902716 
3432.000000	1.903710 
3430.000000	1.911510 
3428.000000	1.917070 
3426.000000	1.914801 
3424.000000	1.913594 
3422.000000	1.912982 
3420.000000	1.906038 
3418.000000	1.897541 
3416.000000	1.899870 
3414.000000	1.904332 
3412.000000	1.902509 
3410.000000	1.902807 
3408.000000	1.904332 
3406.000000	1.908531 
3404.000000	1.904789 
3402.000000	1.898057 
3400.000000	1.901583 
3398.000000	1.902492 
3396.000000	1.897329 
3394.000000	1.894354 
3392.000000	1.898311 
3390.000000	1.912600 
3388.000000	1.908656 
3386.000000	1.890547 
3384.000000	1.885380 
3382.000000	1.889952 
3380.000000	1.899344 
3378.000000	1.909043 
3376.000000	1.901179 
3374.000000	1.881927 
3372.000000	1.877733 
3370.000000	1.894841 
3368.000000	1.909614 
3366.000000	1.905838 
3364.000000	1.894427 
3362.000000	1.888877 
3360.000000	1.883800 
3358.000000	1.882495 
3356.000000	1.887205 
3354.000000	1.887372 
3352.000000	1.887980 
3350.000000	1.888580 
3348.000000	1.886016 
3346.000000	1.889406 
3344.000000	1.893365 
3342.000000	1.892491 
3340.000000	1.887500 
3338.000000	1.888268 
3336.000000	1.894809 
3334.000000	1.895524 
3332.000000	1.890821 
3330.000000	1.875395 
3328.000000	1.865834 
3326.000000	1.872529 
3324.000000	1.880761 
3322.000000	1.875069 
3320.000000	1.872383 
3318.000000	1.880737 
3316.000000	1.882637 
3314.000000	1.871388 
3312.000000	1.865614 
3310.000000	1.871119 
3308.000000	1.867853 
3306.000000	1.864050 
3304.000000	1.869460 
3302.000000	1.867624 
3300.000000	1.857065 
3298.000000	1.853046 
3296.000000	1.857960 
3294.000000	1.861664 
3292.000000	1.858857 
3290.000000	1.854088 
3288.000000	1.848295 
3286.000000	1.842249 
3284.000000	1.844559 
3282.000000	1.847522 
3280.000000	1.843915 
3278.000000	1.843575 
3276.000000	1.854896 
3274.000000	1.861747 
3272.000000	1.851433 
3270.000000	1.845232 
3268.000000	1.855964 
3266.000000	1.862953 
3264.000000	1.857304 
3262.000000	1.854947 
3260.000000	1.847427 
3258.000000	1.842926 
3256.000000	1.844740 
3254.000000	1.838442 
3252.000000	1.832930 
3250.000000	1.835646 
3248.000000	1.843496 
3246.000000	1.843077 
3244.000000	1.840280 
3242.000000	1.834450 
3240.000000	1.824189 
3238.000000	1.826641 
3236.000000	1.838328 
3234.000000	1.841968 
3232.000000	1.836235 
3230.000000	1.835895 
3228.000000	1.840402 
3226.000000	1.838200 
3224.000000	1.833473 
3222.000000	1.829715 
3220.000000	1.823023 
3218.000000	1.820893 
3216.000000	1.823113 
3214.000000	1.824458 
3212.000000	1.824520 
3210.000000	1.820181 
3208.000000	1.819543 
3206.000000	1.818377 
3204.000000	1.813659 
3202.000000	1.815679 
3200.000000	1.811964 
3198.000000	1.807953 
3196.000000	1.810515 
3194.000000	1.814928 
3192.000000	1.819790 
3190.000000	1.819776 
3188.000000	1.812286 
3186.000000	1.804754 
3184.000000	1.804925 
3182.000000	1.804575 
3180.000000	1.797745 
3178.000000	1.800051 
3176.000000	1.807754 
3174.000000	1.800797 
3172.000000	1.800803 
3170.000000	1.805408 
3168.000000	1.801832 
3166.000000	1.795160 
3164.000000	1.788259 
3162.000000	1.791411 
3160.000000	1.798454 
3158.000000	1.795593 
3156.000000	1.796383 
3154.000000	1.794012 
3152.000000	1.790586 
3150.000000	1.797044 
3148.000000	1.796784 
3146.000000	1.785711 
3144.000000	1.780354 
3142.000000	1.776110 
3140.000000	1.772030 
3138.000000	1.773202 
3136.000000	1.774659 
3134.000000	1.772600 
3132.000000	1.775961 
3130.000000	1.779610 
3128.000000	1.775554 
3126.000000	1.773484 
3124.000000	1.774308 
3122.000000	1.782042 
3120.000000	1.783103 
3118.000000	1.773159 
3116.000000	1.770508 
3114.000000	1.767795 
3112.000000	1.758424 
3110.000000	1.757434 
3108.000000	1.760942 
3106.000000	1.757849 
3104.000000	1.757558 
3102.000000	1.760149 
3100.000000	1.756304 
3098.000000	1.756163 
3096.000000	1.759155 
3094.000000	1.752365 
3092.000000	1.747290 
3090.000000	1.744937 
3088.000000	1.744689 
3086.000000	1.745075 
3084.000000	1.743053 
3082.000000	1.743873 
3080.000000	1.743328 
3078.000000	1.740136 
3076.000000	1.736690 
3074.000000	1.734370 
3072.000000	1.738443 
3070.000000	1.746470 
3068.000000	1.749500 
3066.000000	1.742612 
3064.000000	1.738659 
3062.000000	1.739800 
3060.000000	1.737537 
3058.000000	1.731215 
3056.000000	1.730652 
3054.000000	1.732644 
3052.000000	1.731421 
3050.000000	1.731767 
3048.000000	1.732325 
3046.000000	1.730552 
3044.000000	1.728414 
3042.000000	1.728436 
3040.000000	1.727479 
3038.000000	1.722970 
3036.000000	1.720776 
3034.000000	1.720162 
3032.000000	1.718946 
3030.000000	1.719803 
3028.000000	1.723791 
3026.000000	1.723462 
3024.000000	1.720031 
3022.000000	1.722216 
3020.000000	1.720531 
3018.000000	1.714492 
3016.000000	1.717356 
3014.000000	1.723276 
3012.000000	1.721468 
3010.000000	1.717404 
3008.000000	1.719309 
3006.000000	1.721310 
3004.000000	1.717426 
3002.000000	1.718800 
3000.000000	1.721098 
2998.000000	1.712517 
2996.000000	1.706784 
2994.000000	1.705952 
2992.000000	1.700578 
2990.000000	1.701103 
2988.000000	1.707649 
2986.000000	1.710445 
2984.000000	1.712432 
2982.000000	1.711520 
2980.000000	1.706957 
2978.000000	1.702160 
2976.000000	1.705342 
2974.000000	1.707153 
2972.000000	1.711089 
2970.000000	1.722161 
2968.000000	1.722860 
2966.000000	1.717437 
2964.000000	1.715636 
2962.000000	1.717366 
2960.000000	1.723024 
2958.000000	1.723139 
2956.000000	1.713175 
2954.000000	1.706926 
2952.000000	1.704827 
2950.000000	1.703528 
2948.000000	1.706125 
2946.000000	1.708531 
2944.000000	1.714246 
2942.000000	1.713721 
2940.000000	1.711211 
2938.000000	1.708939 
2936.000000	1.706115 
2934.000000	1.707781 
2932.000000	1.704376 
2930.000000	1.703821 
2928.000000	1.707089 
2926.000000	1.706478 
2924.000000	1.700193 
2922.000000	1.697817 
2920.000000	1.700734 
2918.000000	1.702196 
2916.000000	1.703157 
2914.000000	1.701613 
2912.000000	1.697657 
2910.000000	1.689985 
2908.000000	1.685015 
2906.000000	1.688143 
2904.000000	1.687000 
2902.000000	1.683534 
2900.000000	1.683819 
2898.000000	1.679566 
2896.000000	1.675123 
2894.000000	1.674086 
2892.000000	1.676881 
2890.000000	1.678932 
2888.000000	1.677196 
2886.000000	1.677629 
2884.000000	1.677698 
2882.000000	1.676394 
2880.000000	1.676670 
2878.000000	1.671586 
2876.000000	1.667654 
2874.000000	1.667379 
2872.000000	1.664434 
2870.000000	1.663469 
2868.000000	1.668250 
2866.000000	1.665909 
2864.000000	1.661509 
2862.000000	1.664793 
2860.000000	1.672383 
2858.000000	1.676075 
2856.000000	1.674326 
2854.000000	1.670183 
2852.000000	1.662907 
2850.000000	1.658872 
2848.000000	1.658235 
2846.000000	1.654991 
2844.000000	1.654033 
2842.000000	1.656011 
2840.000000	1.655365 
2838.000000	1.655070 
2836.000000	1.653981 
2834.000000	1.651042 
2832.000000	1.650731 
2830.000000	1.652118 
2828.000000	1.647525 
2826.000000	1.642742 
2824.000000	1.642397 
2822.000000	1.641144 
2820.000000	1.642174 
2818.000000	1.645585 
2816.000000	1.644419 
2814.000000	1.640198 
2812.000000	1.639146 
2810.000000	1.638380 
2808.000000	1.637889 
2806.000000	1.640682 
2804.000000	1.644223 
2802.000000	1.644519 
2800.000000	1.643010 
2798.000000	1.637961 
2796.000000	1.634972 
2794.000000	1.637566 
2792.000000	1.638263 
2790.000000	1.637791 
2788.000000	1.641330 
2786.000000	1.641017 
2784.000000	1.637755 
2782.000000	1.635620 
2780.000000	1.636108 
2778.000000	1.635307 
2776.000000	1.633625 
2774.000000	1.630872 
2772.000000	1.629399 
2770.000000	1.630156 
2768.000000	1.632855 
2766.000000	1.630488 
2764.000000	1.626152 
2762.000000	1.627449 
2760.000000	1.628258 
2758.000000	1.630744 
2756.000000	1.636435 
2754.000000	1.636054 
2752.000000	1.631687 
2750.000000	1.630267 
2748.000000	1.630293 
2746.000000	1.628672 
2744.000000	1.628680 
2742.000000	1.627708 
2740.000000	1.625024 
2738.000000	1.625251 
2736.000000	1.627436 
2734.000000	1.629610 
2732.000000	1.628069 
2730.000000	1.628588 
2728.000000	1.626967 
2726.000000	1.625635 
2724.000000	1.625037 
2722.000000	1.621857 
2720.000000	1.620787 
2718.000000	1.623233 
2716.000000	1.621073 
2714.000000	1.621064 
2712.000000	1.624958 
2710.000000	1.624125 
2708.000000	1.621662 
2706.000000	1.624086 
2704.000000	1.628883 
2702.000000	1.626248 
2700.000000	1.620442 
2698.000000	1.619497 
2696.000000	1.621541 
2694.000000	1.619234 
2692.000000	1.618420 
2690.000000	1.626077 
2688.000000	1.626852 
2686.000000	1.622581 
2684.000000	1.623581 
2682.000000	1.627590 
2680.000000	1.626252 
2678.000000	1.620658 
2676.000000	1.621701 
2674.000000	1.625163 
2672.000000	1.623233 
2670.000000	1.621082 
2668.000000	1.618003 
2666.000000	1.616173 
2664.000000	1.619324 
2662.000000	1.619514 
2660.000000	1.615386 
2658.000000	1.612261 
2656.000000	1.612959 
2654.000000	1.612011 
2652.000000	1.609329 
2650.000000	1.612649 
2648.000000	1.617321 
2646.000000	1.616524 
2644.000000	1.613337 
2642.000000	1.615912 
2640.000000	1.617630 
2638.000000	1.615690 
2636.000000	1.614537 
2634.000000	1.617205 
2632.000000	1.619061 
2630.000000	1.617797 
2628.000000	1.617711 
2626.000000	1.613835 
2624.000000	1.609691 
2622.000000	1.610530 
2620.000000	1.612879 
2618.000000	1.613614 
2616.000000	1.620062 
2614.000000	1.623155 
2612.000000	1.613465 
2610.000000	1.609961 
2608.000000	1.615416 
2606.000000	1.620265 
2604.000000	1.621515 
2602.000000	1.615591 
2600.000000	1.608235 
2598.000000	1.609265 
2596.000000	1.610387 
2594.000000	1.608479 
2592.000000	1.607538 
2590.000000	1.607140 
2588.000000	1.604954 
2586.000000	1.604517 
2584.000000	1.610265 
2582.000000	1.613197 
2580.000000	1.610632 
2578.000000	1.607274 
2576.000000	1.605956 
2574.000000	1.607710 
2572.000000	1.612531 
2570.000000	1.613673 
2568.000000	1.608739 
2566.000000	1.605371 
2564.000000	1.607128 
2562.000000	1.606203 
2560.000000	1.603635 
2558.000000	1.608122 
2556.000000	1.610476 
2554.000000	1.609076 
2552.000000	1.607161 
2550.000000	1.607132 
2548.000000	1.607517 
2546.000000	1.603315 
2544.000000	1.601909 
2542.000000	1.605714 
2540.000000	1.608340 
2538.000000	1.605371 
2536.000000	1.600430 
2534.000000	1.599004 
2532.000000	1.601392 
2530.000000	1.603498 
2528.000000	1.603199 
2526.000000	1.603253 
2524.000000	1.600892 
2522.000000	1.597338 
2520.000000	1.598754 
2518.000000	1.597568 
2516.000000	1.596712 
2514.000000	1.599927 
2512.000000	1.601103 
2510.000000	1.602373 
2508.000000	1.603207 
2506.000000	1.596982 
2504.000000	1.596127 
2502.000000	1.601980 
2500.000000	1.602249 
2498.000000	1.596933 
2496.000000	1.593466 
2494.000000	1.594991 
2492.000000	1.598976 
2490.000000	1.598474 
2488.000000	1.597252 
2486.000000	1.597875 
2484.000000	1.597334 
2482.000000	1.595760 
2480.000000	1.596532 
2478.000000	1.595134 
2476.000000	1.593332 
2474.000000	1.594283 
2472.000000	1.593259 
2470.000000	1.592468 
2468.000000	1.591396 
2466.000000	1.591061 
2464.000000	1.593575 
2462.000000	1.595846 
2460.000000	1.593645 
2458.000000	1.592845 
2456.000000	1.593616 
2454.000000	1.592825 
2452.000000	1.592687 
2450.000000	1.595805 
2448.000000	1.594205 
2446.000000	1.587438 
2444.000000	1.588284 
2442.000000	1.593604 
2440.000000	1.595195 
2438.000000	1.594959 
2436.000000	1.593210 
2434.000000	1.593584 
2432.000000	1.594808 
2430.000000	1.593040 
2428.000000	1.587434 
2426.000000	1.584191 
2424.000000	1.588083 
2422.000000	1.591473 
2420.000000	1.589055 
2418.000000	1.588609 
2416.000000	1.589573 
2414.000000	1.591356 
2412.000000	1.591493 
2410.000000	1.588420 
2408.000000	1.587298 
2406.000000	1.584867 
2404.000000	1.585409 
2402.000000	1.588292 
2400.000000	1.586826 
2398.000000	1.583988 
2396.000000	1.583833 
2394.000000	1.585652 
2392.000000	1.586171 
2390.000000	1.587154 
2388.000000	1.585983 
2386.000000	1.586127 
2384.000000	1.585899 
2382.000000	1.585377 
2380.000000	1.586346 
2378.000000	1.584044 
2376.000000	1.577352 
2374.000000	1.572578 
2372.000000	1.578723 
2370.000000	1.585927 
2368.000000	1.579931 
2366.000000	1.577242 
2364.000000	1.584155 
2362.000000	1.593336 
2360.000000	1.598253 
2358.000000	1.600826 
2356.000000	1.604205 
2354.000000	1.605513 
2352.000000	1.609447 
2350.000000	1.603913 
2348.000000	1.591489 
2346.000000	1.588035 
2344.000000	1.586662 
2342.000000	1.582038 
2340.000000	1.594291 
2338.000000	1.607195 
2336.000000	1.602771 
2334.000000	1.597920 
2332.000000	1.604063 
2330.000000	1.612365 
2328.000000	1.621580 
2326.000000	1.627313 
2324.000000	1.618382 
2322.000000	1.613597 
2320.000000	1.619962 
2318.000000	1.625316 
2316.000000	1.629707 
2314.000000	1.634552 
2312.000000	1.633602 
2310.000000	1.635557 
2308.000000	1.642138 
2306.000000	1.646144 
2304.000000	1.650708 
2302.000000	1.655660 
2300.000000	1.659023 
2298.000000	1.661779 
2296.000000	1.669723 
2294.000000	1.681869 
2292.000000	1.691890 
2290.000000	1.702436 
2288.000000	1.709707 
2286.000000	1.721147 
2284.000000	1.735230 
2282.000000	1.745633 
2280.000000	1.755962 
2278.000000	1.770978 
2276.000000	1.785497 
2274.000000	1.802994 
2272.000000	1.821058 
2270.000000	1.840381 
2268.000000	1.859456 
2266.000000	1.866306 
2264.000000	1.875449 
2262.000000	1.883191 
2260.000000	1.882211 
2258.000000	1.886303 
2256.000000	1.895370 
2254.000000	1.897599 
2252.000000	1.894630 
2250.000000	1.892394 
2248.000000	1.880085 
2246.000000	1.868771 
2244.000000	1.865674 
2242.000000	1.857013 
2240.000000	1.844414 
2238.000000	1.830177 
2236.000000	1.814753 
2234.000000	1.798701 
2232.000000	1.785282 
2230.000000	1.777975 
2228.000000	1.774561 
2226.000000	1.773681 
2224.000000	1.771388 
2222.000000	1.757926 
2220.000000	1.751190 
2218.000000	1.755856 
2216.000000	1.756943 
2214.000000	1.755838 
2212.000000	1.758175 
2210.000000	1.764575 
2208.000000	1.768323 
2206.000000	1.767540 
2204.000000	1.766517 
2202.000000	1.760787 
2200.000000	1.755178 
2198.000000	1.752933 
2196.000000	1.743019 
2194.000000	1.734342 
2192.000000	1.730446 
2190.000000	1.728159 
2188.000000	1.725317 
2186.000000	1.714444 
2184.000000	1.705820 
2182.000000	1.700889 
2180.000000	1.694603 
2178.000000	1.690903 
2176.000000	1.686290 
2174.000000	1.679437 
2172.000000	1.679927 
2170.000000	1.683194 
2168.000000	1.676134 
2166.000000	1.670741 
2164.000000	1.675511 
2162.000000	1.674800 
2160.000000	1.667702 
2158.000000	1.666288 
2156.000000	1.667129 
2154.000000	1.665358 
2152.000000	1.663536 
2150.000000	1.661414 
2148.000000	1.656471 
2146.000000	1.653907 
2144.000000	1.654962 
2142.000000	1.652104 
2140.000000	1.650523 
2138.000000	1.646965 
2136.000000	1.636798 
2134.000000	1.631129 
2132.000000	1.631865 
2130.000000	1.633064 
2128.000000	1.629028 
2126.000000	1.627081 
2124.000000	1.627190 
2122.000000	1.621740 
2120.000000	1.619208 
2118.000000	1.618713 
2116.000000	1.616220 
2114.000000	1.610771 
2112.000000	1.606931 
2110.000000	1.610020 
2108.000000	1.609729 
2106.000000	1.603419 
2104.000000	1.598700 
2102.000000	1.599231 
2100.000000	1.601268 
2098.000000	1.597400 
2096.000000	1.591974 
2094.000000	1.587434 
2092.000000	1.582335 
2090.000000	1.580313 
2088.000000	1.579640 
2086.000000	1.579349 
2084.000000	1.577586 
2082.000000	1.573445 
2080.000000	1.570505 
2078.000000	1.568407 
2076.000000	1.566545 
2074.000000	1.564310 
2072.000000	1.562588 
2070.000000	1.558670 
2068.000000	1.555220 
2066.000000	1.555581 
2064.000000	1.554340 
2062.000000	1.548513 
2060.000000	1.543576 
2058.000000	1.542166 
2056.000000	1.541615 
2054.000000	1.541712 
2052.000000	1.543992 
2050.000000	1.543641 
2048.000000	1.542766 
2046.000000	1.538946 
2044.000000	1.531003 
2042.000000	1.528667 
2040.000000	1.533876 
2038.000000	1.535216 
2036.000000	1.531552 
2034.000000	1.527365 
2032.000000	1.525340 
2030.000000	1.524314 
2028.000000	1.525444 
2026.000000	1.527403 
2024.000000	1.526320 
2022.000000	1.523798 
2020.000000	1.521164 
2018.000000	1.520233 
2016.000000	1.520824 
2014.000000	1.521449 
2012.000000	1.524688 
2010.000000	1.525520 
2008.000000	1.524324 
2006.000000	1.524795 
2004.000000	1.522700 
2002.000000	1.519479 
2000.000000	1.519209 
1998.000000	1.519383 
1996.000000	1.518872 
1994.000000	1.518934 
1992.000000	1.522738 
1990.000000	1.524764 
1988.000000	1.521921 
1986.000000	1.519359 
1984.000000	1.517057 
1982.000000	1.515819 
1980.000000	1.514439 
1978.000000	1.516530 
1976.000000	1.518599 
1974.000000	1.516931 
1972.000000	1.517913 
1970.000000	1.519568 
1968.000000	1.517694 
1966.000000	1.515779 
1964.000000	1.512767 
1962.000000	1.511175 
1960.000000	1.512383 
1958.000000	1.516924 
1956.000000	1.517684 
1954.000000	1.514890 
1952.000000	1.514551 
1950.000000	1.516655 
1948.000000	1.515548 
1946.000000	1.512050 
1944.000000	1.508823 
1942.000000	1.512841 
1940.000000	1.517309 
1938.000000	1.513810 
1936.000000	1.512734 
1934.000000	1.516200 
1932.000000	1.518903 
1930.000000	1.515436 
1928.000000	1.510759 
1926.000000	1.506614 
1924.000000	1.507043 
1922.000000	1.514186 
1920.000000	1.511754 
1918.000000	1.509783 
1916.000000	1.512100 
1914.000000	1.511404 
1912.000000	1.511498 
1910.000000	1.508827 
1908.000000	1.507922 
1906.000000	1.509596 
1904.000000	1.509362 
1902.000000	1.505326 
1900.000000	1.505734 
1898.000000	1.507386 
1896.000000	1.504249 
1894.000000	1.503384 
1892.000000	1.501793 
1890.000000	1.501806 
1888.000000	1.505833 
1886.000000	1.505016 
1884.000000	1.507040 
1882.000000	1.506687 
1880.000000	1.503074 
1878.000000	1.503717 
1876.000000	1.504008 
1874.000000	1.502827 
1872.000000	1.498134 
1870.000000	1.493801 
1868.000000	1.501606 
1866.000000	1.506438 
1864.000000	1.504242 
1862.000000	1.502184 
1860.000000	1.499685 
1858.000000	1.497893 
1856.000000	1.497040 
1854.000000	1.497753 
1852.000000	1.496637 
1850.000000	1.491064 
1848.000000	1.489597 
1846.000000	1.487093 
1844.000000	1.494434 
1842.000000	1.504702 
1840.000000	1.498111 
1838.000000	1.493308 
1836.000000	1.493782 
1834.000000	1.490071 
1832.000000	1.481765 
1830.000000	1.486099 
1828.000000	1.494589 
1826.000000	1.492931 
1824.000000	1.495884 
1822.000000	1.492731 
1820.000000	1.488152 
1818.000000	1.487958 
1816.000000	1.488264 
1814.000000	1.483700 
1812.000000	1.480912 
1810.000000	1.482966 
1808.000000	1.482488 
1806.000000	1.478799 
1804.000000	1.475086 
1802.000000	1.473651 
1800.000000	1.479880 
1798.000000	1.482607 
1796.000000	1.476935 
1794.000000	1.466059 
1792.000000	1.473097 
1790.000000	1.484167 
1788.000000	1.477867 
1786.000000	1.471748 
1784.000000	1.472986 
1782.000000	1.472463 
1780.000000	1.473725 
1778.000000	1.471065 
1776.000000	1.459721 
1774.000000	1.451320 
1772.000000	1.464732 
1770.000000	1.474660 
1768.000000	1.468792 
1766.000000	1.468518 
1764.000000	1.459583 
1762.000000	1.459554 
1760.000000	1.466383 
1758.000000	1.459924 
1756.000000	1.462967 
1754.000000	1.457287 
1752.000000	1.446226 
1750.000000	1.456907 
1748.000000	1.462769 
1746.000000	1.456718 
1744.000000	1.451013 
1742.000000	1.448241 
1740.000000	1.447178 
1738.000000	1.458794 
1736.000000	1.441122 
1734.000000	1.448130 
1732.000000	1.470991 
1730.000000	1.461733 
1728.000000	1.457703 
1726.000000	1.452753 
1724.000000	1.454157 
1722.000000	1.454112 
1720.000000	1.436307 
1718.000000	1.436188 
1716.000000	1.459661 
1714.000000	1.460991 
1712.000000	1.453044 
1710.000000	1.445974 
1708.000000	1.437989 
1706.000000	1.435437 
1704.000000	1.434842 
1702.000000	1.412514 
1700.000000	1.437170 
1698.000000	1.449128 
1696.000000	1.441239 
1694.000000	1.449778 
1692.000000	1.430413 
1690.000000	1.421852 
1688.000000	1.421027 
1686.000000	1.402001 
1684.000000	1.423052 
1682.000000	1.442465 
1680.000000	1.424521 
1678.000000	1.413768 
1676.000000	1.407951 
1674.000000	1.422893 
1672.000000	1.412169 
1670.000000	1.406761 
1668.000000	1.423576 
1666.000000	1.416696 
1664.000000	1.405232 
1662.000000	1.412798 
1660.000000	1.413165 
1658.000000	1.406510 
1656.000000	1.387388 
1654.000000	1.376011 
1652.000000	1.437308 
1650.000000	1.427863 
1648.000000	1.401639 
1646.000000	1.419278 
1644.000000	1.425259 
1642.000000	1.411583 
1640.000000	1.406442 
1638.000000	1.398437 
1636.000000	1.404950 
1634.000000	1.432700 
1632.000000	1.425347 
1630.000000	1.410447 
1628.000000	1.410051 
1626.000000	1.410754 
1624.000000	1.407131 
1622.000000	1.416231 
1620.000000	1.406973 
1618.000000	1.390837 
1616.000000	1.405095 
1614.000000	1.406912 
1612.000000	1.391584 
1610.000000	1.386131 
1608.000000	1.386131 
1606.000000	1.383594 
1604.000000	1.379090 
1602.000000	1.377169 
1600.000000	1.373486 
1598.000000	1.367893 
1596.000000	1.364730 
1594.000000	1.363454 
1592.000000	1.361458 
1590.000000	1.359149 
1588.000000	1.355139 
1586.000000	1.351098 
1584.000000	1.350924 
1582.000000	1.349722 
1580.000000	1.344871 
1578.000000	1.332252 
1576.000000	1.343092 
1574.000000	1.356146 
1572.000000	1.339444 
1570.000000	1.334393 
1568.000000	1.345015 
1566.000000	1.339256 
1564.000000	1.335120 
1562.000000	1.317691 
1560.000000	1.304982 
1558.000000	1.357450 
1556.000000	1.350775 
1554.000000	1.332635 
1552.000000	1.326687 
1550.000000	1.324313 
1548.000000	1.323736 
1546.000000	1.313799 
1544.000000	1.311017 
1542.000000	1.310312 
1540.000000	1.328508 
1538.000000	1.345116 
1536.000000	1.320045 
1534.000000	1.307218 
1532.000000	1.319278 
1530.000000	1.311095 
1528.000000	1.302121 
1526.000000	1.303193 
1524.000000	1.299092 
1522.000000	1.297979 
1520.000000	1.316598 
1518.000000	1.307075 
1516.000000	1.305227 
1514.000000	1.302127 
1512.000000	1.293391 
1510.000000	1.285812 
1508.000000	1.282030 
1506.000000	1.316402 
1504.000000	1.316668 
1502.000000	1.295024 
1500.000000	1.280395 
1498.000000	1.280945 
1496.000000	1.294424 
1494.000000	1.294834 
1492.000000	1.282531 
1490.000000	1.285472 
1488.000000	1.294114 
1486.000000	1.292022 
1484.000000	1.285190 
1482.000000	1.280684 
1480.000000	1.280492 
1478.000000	1.275575 
1476.000000	1.274218 
1474.000000	1.273030 
1472.000000	1.288533 
1470.000000	1.293228 
1468.000000	1.280170 
1466.000000	1.273545 
1464.000000	1.284034 
1462.000000	1.283537 
1460.000000	1.266271 
1458.000000	1.263936 
1456.000000	1.291544 
1454.000000	1.289948 
1452.000000	1.276099 
1450.000000	1.269598 
1448.000000	1.268012 
1446.000000	1.269240 
1444.000000	1.264459 
1442.000000	1.260437 
1440.000000	1.253802 
1438.000000	1.245307 
1436.000000	1.254963 
1434.000000	1.256169 
1432.000000	1.245604 
1430.000000	1.244190 
1428.000000	1.245447 
1426.000000	1.238451 
1424.000000	1.236764 
1422.000000	1.231472 
1420.000000	1.226769 
1418.000000	1.240129 
1416.000000	1.235519 
1414.000000	1.227095 
1412.000000	1.224878 
1410.000000	1.223531 
1408.000000	1.219063 
1406.000000	1.215367 
1404.000000	1.216240 
1402.000000	1.213235 
1400.000000	1.211180 
1398.000000	1.214789 
1396.000000	1.213242 
1394.000000	1.214399 
1392.000000	1.211648 
1390.000000	1.200720 
1388.000000	1.196674 
1386.000000	1.201276 
1384.000000	1.199808 
1382.000000	1.195083 
1380.000000	1.192207 
1378.000000	1.190014 
1376.000000	1.185971 
1374.000000	1.186643 
1372.000000	1.186882 
1370.000000	1.182829 
1368.000000	1.181055 
1366.000000	1.177138 
1364.000000	1.172347 
1362.000000	1.175995 
1360.000000	1.175452 
1358.000000	1.172136 
1356.000000	1.169560 
1354.000000	1.165899 
1352.000000	1.163455 
1350.000000	1.162074 
1348.000000	1.159814 
1346.000000	1.156400 
1344.000000	1.154422 
1342.000000	1.152277 
1340.000000	1.149449 
1338.000000	1.147466 
1336.000000	1.145196 
1334.000000	1.144302 
1332.000000	1.143977 
1330.000000	1.142175 
1328.000000	1.140754 
1326.000000	1.140590 
1324.000000	1.139486 
1322.000000	1.137295 
1320.000000	1.135104 
1318.000000	1.134525 
1316.000000	1.133843 
1314.000000	1.132338 
1312.000000	1.131750 
1310.000000	1.130318 
1308.000000	1.128724 
1306.000000	1.127396 
1304.000000	1.126056 
1302.000000	1.125003 
1300.000000	1.123662 
1298.000000	1.123382 
1296.000000	1.123865 
1294.000000	1.122242 
1292.000000	1.120050 
1290.000000	1.118967 
1288.000000	1.118543 
1286.000000	1.117055 
1284.000000	1.116147 
1282.000000	1.116867 
1280.000000	1.115910 
1278.000000	1.113980 
1276.000000	1.113420 
1274.000000	1.114449 
1272.000000	1.117712 
1270.000000	1.121800 
1268.000000	1.123438 
1266.000000	1.124590 
1264.000000	1.125018 
1262.000000	1.124196 
1260.000000	1.124745 
1258.000000	1.125626 
1256.000000	1.125329 
1254.000000	1.126951 
1252.000000	1.131323 
1250.000000	1.135610 
1248.000000	1.139174 
1246.000000	1.145220 
1244.000000	1.153794 
1242.000000	1.161638 
1240.000000	1.170938 
1238.000000	1.182892 
1236.000000	1.194439 
1234.000000	1.208943 
1232.000000	1.225050 
1230.000000	1.241178 
1228.000000	1.258333 
1226.000000	1.275790 
1224.000000	1.295220 
1222.000000	1.317203 
1220.000000	1.341180 
1218.000000	1.365378 
1216.000000	1.388904 
1214.000000	1.410639 
1212.000000	1.430118 
1210.000000	1.453897 
1208.000000	1.479664 
1206.000000	1.502850 
1204.000000	1.522824 
1202.000000	1.539562 
1200.000000	1.560449 
1198.000000	1.585082 
1196.000000	1.606437 
1194.000000	1.623420 
1192.000000	1.636592 
1190.000000	1.650301 
1188.000000	1.670024 
1186.000000	1.690908 
1184.000000	1.710254 
1182.000000	1.725983 
1180.000000	1.739522 
1178.000000	1.749337 
1176.000000	1.760942 
1174.000000	1.775017 
1172.000000	1.789545 
1170.000000	1.796901 
1168.000000	1.808233 
1166.000000	1.823568 
1164.000000	1.827002 
1162.000000	1.837366 
1160.000000	1.857244 
1158.000000	1.865211 
1156.000000	1.867197 
1154.000000	1.866930 
1152.000000	1.876929 
1150.000000	1.895606 
1148.000000	1.900067 
1146.000000	1.893989 
1144.000000	1.886152 
1142.000000	1.886845 
1140.000000	1.901649 
1138.000000	1.919962 
1136.000000	1.922190 
1134.000000	1.911248 
1132.000000	1.917507 
1130.000000	1.931465 
1128.000000	1.936355 
1126.000000	1.941518 
1124.000000	1.953102 
1122.000000	1.968270 
1120.000000	1.973082 
1118.000000	1.978990 
1116.000000	1.991989 
1114.000000	2.000435 
1112.000000	2.002138 
1110.000000	1.999814 
1108.000000	2.011852 
1106.000000	2.026160 
1104.000000	2.019342 
1102.000000	2.022613 
1100.000000	2.047009 
1098.000000	2.079558 
1096.000000	2.119400 
1094.000000	2.145379 
1092.000000	2.139358 
1090.000000	2.146712 
1088.000000	2.165004 
1086.000000	2.152338 
1084.000000	2.158259 
1082.000000	2.202028 
1080.000000	2.209879 
1078.000000	2.222225 
1076.000000	2.267859 
1074.000000	2.298254 
1072.000000	2.315914 
1070.000000	2.288828 
1068.000000	2.256835 
1066.000000	2.241996 
1064.000000	2.246812 
1062.000000	2.260102 
1060.000000	2.262407 
1058.000000	2.271135 
1056.000000	2.248094 
1054.000000	2.200760 
1052.000000	2.195660 
1050.000000	2.195952 
1048.000000	2.175486 
1046.000000	2.156727 
1044.000000	2.122602 
1042.000000	2.077338 
1040.000000	2.041826 
1038.000000	2.007497 
1036.000000	1.965173 
1034.000000	1.932438 
1032.000000	1.913380 
1030.000000	1.876874 
1028.000000	1.833452 
1026.000000	1.786135 
1024.000000	1.736097 
1022.000000	1.686733 
1020.000000	1.633233 
1018.000000	1.579133 
1016.000000	1.524681 
1014.000000	1.471653 
1012.000000	1.423493 
1010.000000	1.374123 
1008.000000	1.321831 
1006.000000	1.273022 
1004.000000	1.228384 
1002.000000	1.188317 
1000.000000	1.150411 
998.000000	 1.115593 
996.000000	 1.085890 
994.000000	 1.060600 
992.000000	 1.041445 
990.000000	 1.030068 
988.000000	 1.025186 
986.000000	 1.022438 
984.000000	 1.016119 
982.000000	 1.004250 
980.000000	 0.990052 
978.000000	 0.972738 
976.000000	 0.952402 
974.000000	 0.932061 
972.000000	 0.912198 
970.000000	 0.893182 
968.000000	 0.877631 
966.000000	 0.866300 
964.000000	 0.858347 
962.000000	 0.852262 
960.000000	 0.847734 
958.000000	 0.845250 
956.000000	 0.845099 
954.000000	 0.848192 
952.000000	 0.854470 
950.000000	 0.862960 
948.000000	 0.872409 
946.000000	 0.882201 
944.000000	 0.891256 
942.000000	 0.895207 
940.000000	 0.893218 
938.000000	 0.890319 
936.000000	 0.886919 
934.000000	 0.881998 
932.000000	 0.876362 
930.000000	 0.867947 
928.000000	 0.858629 
926.000000	 0.849510 
924.000000	 0.839446 
922.000000	 0.830125 
920.000000	 0.823475 
918.000000	 0.818999 
916.000000	 0.817749 
914.000000	 0.820381 
912.000000	 0.825165 
910.000000	 0.832389 
908.000000	 0.841842 
906.000000	 0.851997 
904.000000	 0.864028 
902.000000	 0.878809 
900.000000	 0.897855 
898.000000	 0.922994 
896.000000	 0.956162 
894.000000	 0.996842 
892.000000	 1.044167 
890.000000	 1.094421 
888.000000	 1.142836 
886.000000	 1.188246 
884.000000	 1.227641 
882.000000	 1.258423 
880.000000	 1.279742 
878.000000	 1.287641 
876.000000	 1.281651 
874.000000	 1.265156 
872.000000	 1.246968 
870.000000	 1.226490 
868.000000	 1.198735 
866.000000	 1.175943 
864.000000	 1.160705 
862.000000	 1.146427 
860.000000	 1.130988 
858.000000	 1.118963 
856.000000	 1.111932 
854.000000	 1.106755 
852.000000	 1.100985 
850.000000	 1.094776 
848.000000	 1.087944 
846.000000	 1.080258 
844.000000	 1.072114 
842.000000	 1.062883 
840.000000	 1.048912 
838.000000	 1.029192 
836.000000	 1.002763 
834.000000	 0.971126 
832.000000	 0.934027 
830.000000	 0.889966 
828.000000	 0.841888 
826.000000	 0.794568 
824.000000	 0.753843 
822.000000	 0.719904 
820.000000	 0.692747 
818.000000	 0.673687 
816.000000	 0.660680 
814.000000	 0.650851 
812.000000	 0.642836 
810.000000	 0.636536 
808.000000	 0.631735 
806.000000	 0.626372 
804.000000	 0.621076 
802.000000	 0.616247 
800.000000	 0.611622 
798.000000	 0.607795 
796.000000	 0.602578 
794.000000	 0.596072 
792.000000	 0.590561 
790.000000	 0.586479 
788.000000	 0.582017 
786.000000	 0.577417 
784.000000	 0.573281 
782.000000	 0.569525 
780.000000	 0.566774 
778.000000	 0.564530 
776.000000	 0.562036 
774.000000	 0.559130 
772.000000	 0.556539 
770.000000	 0.555066 
768.000000	 0.553840 
766.000000	 0.553357 
764.000000	 0.553539 
762.000000	 0.552422 
760.000000	 0.550891 
758.000000	 0.550317 
756.000000	 0.549991 
754.000000	 0.548319 
752.000000	 0.545925 
750.000000	 0.545268 
748.000000	 0.544539 
746.000000	 0.542673 
744.000000	 0.539035 
742.000000	 0.534869 
740.000000	 0.531269 
738.000000	 0.527326 
736.000000	 0.522630 
734.000000	 0.517981 
732.000000	 0.513049 
730.000000	 0.507656 
728.000000	 0.502150 
726.000000	 0.497501 
724.000000	 0.493181 
722.000000	 0.488669 
720.000000	 0.485592 
718.000000	 0.483172 
716.000000	 0.481726 
714.000000	 0.480781 
712.000000	 0.478440 
710.000000	 0.474979 
708.000000	 0.470175 
706.000000	 0.463031 
704.000000	 0.454232 
702.000000	 0.444774 
700.000000	 0.435184 
698.000000	 0.425952 
696.000000	 0.418153 
694.000000	 0.411783 
692.000000	 0.405504 
690.000000	 0.399631 
688.000000	 0.395010 
686.000000	 0.390347 
684.000000	 0.386799 
682.000000	 0.384009 
680.000000	 0.380730 
678.000000	 0.377288 
676.000000	 0.374921 
674.000000	 0.373071 
672.000000	 0.370278 
670.000000	 0.366268 
668.000000	 0.363820 
666.000000	 0.362279 
664.000000	 0.359069 
662.000000	 0.356739 
660.000000	 0.355060 
658.000000	 0.353435 
656.000000	 0.351338 
654.000000	 0.349180 
652.000000	 0.347241 
650.000000	 0.345570 
648.000000	 0.342748 
646.000000	 0.339679 
644.000000	 0.337953 
642.000000	 0.336553 
640.000000	 0.334640 
638.000000	 0.332596 
636.000000	 0.329610 
634.000000	 0.326701 
632.000000	 0.323708 
630.000000	 0.319702 
628.000000	 0.314830 
626.000000	 0.309119 
624.000000	 0.303114 
622.000000	 0.298295 
620.000000	 0.294216 
618.000000	 0.289650 
616.000000	 0.284941 
614.000000	 0.280885 
612.000000	 0.276711 
610.000000	 0.271634 
608.000000	 0.267220 
606.000000	 0.263929 
604.000000	 0.260455 
602.000000	 0.256706 
600.000000	 0.253067 
598.000000	 0.249754 
596.000000	 0.246271 
594.000000	 0.242478 
592.000000	 0.239086 
590.000000	 0.235961 
588.000000	 0.232353 
586.000000	 0.228943 
584.000000	 0.225491 
582.000000	 0.221885 
580.000000	 0.218579 
578.000000	 0.215392 
576.000000	 0.212850 
574.000000	 0.209684 
572.000000	 0.205754 
570.000000	 0.203071 
568.000000	 0.201899 
566.000000	 0.200045 
564.000000	 0.197352 
562.000000	 0.195837 
560.000000	 0.194887 
558.000000	 0.193196 
556.000000	 0.191252 
554.000000	 0.190344 
552.000000	 0.189963 
550.000000	 0.189138 
548.000000	 0.188230 
546.000000	 0.188289 
544.000000	 0.188155 
542.000000	 0.187043 
540.000000	 0.186017 
538.000000	 0.186699 
536.000000	 0.187688 
534.000000	 0.188001 
532.000000	 0.188399 
530.000000	 0.189172 
528.000000	 0.190503 
526.000000	 0.191471 
524.000000	 0.191699 
522.000000	 0.192058 
520.000000	 0.192823 
518.000000	 0.194052 
516.000000	 0.196230 
514.000000	 0.198826 
512.000000	 0.201266 
510.000000	 0.204052 
508.000000	 0.208415 
506.000000	 0.213733 
504.000000	 0.219554 
502.000000	 0.226793 
500.000000	 0.234889 
498.000000	 0.244682 
496.000000	 0.256966 
494.000000	 0.268816 
492.000000	 0.281377 
490.000000	 0.296816 
488.000000	 0.312612 
486.000000	 0.326706 
484.000000	 0.341700 
482.000000	 0.357379 
480.000000	 0.372171 
478.000000	 0.387257 
476.000000	 0.400758 
474.000000	 0.412085 
472.000000	 0.425299 
470.000000	 0.439710 
468.000000	 0.450010 
466.000000	 0.455085 
464.000000	 0.458518 
462.000000	 0.463576 
460.000000	 0.469273 
458.000000	 0.472073 
456.000000	 0.473242 
454.000000	 0.474791 
452.000000	 0.475861 
450.000000	 0.473853 

